# B531 filter from Dave & Anne
#      WAVELENGTH      THROUGHPUT
#       angstroms         
5049   0
5049.5 0.13
5051.5 0.16
5053.5 0.21
5055.5 0.27
5057.5 0.33
5059.5 0.33
5061.5 0.41
5063.5 0.42
5065.5 0.39
5067.5 0.50
5069.5 0.58
5071.5 0.60
5073.5 0.59
5075.5 0.67
5077.5 0.82
5079.5 0.97
5081.5 1.05
5083.5 1.08
5085.5 1.17
5087.5 1.31
5089.5 1.47
5091.5 1.58
5093.5 1.75
5095.5 1.99
5097.5 2.18
5099.5 2.39
5101.5 2.74
5103.5 3.07
5105.5 3.37
5107.5 3.77
5109.5 4.29
5111.5 4.92
5113.5 5.52
5115.5 6.19
5117.5 7.10
5119.5 8.06
5121.5 9.38
5123.5 10.75
5125.5 12.11
5127.5 13.78
5129.5 15.73
5131.5 17.92
5133.5 20.32
5135.5 23.08
5137.5 26.17
5139.5 29.54
5141.5 33.15
5143.5 36.83
5145.5 40.71
5147.5 44.84
5149.5 49.06
5151.5 53.19
5153.5 57.11
5155.5 60.80
5157.5 64.65
5159.5 67.81
5161.5 70.65
5163.5 73.06
5165.5 74.79
5167.5 76.21
5169.5 77.47
5171.5 78.10
5173.5 78.54
5175.5 78.72
5177.5 78.60
5179.5 78.14
5181.5 77.46
5183.5 77.02
5185.5 76.57
5187.5 76.08
5189.5 75.74
5191.5 75.39
5193.5 75.15
5195.5 74.95
5197.5 74.64
5199.5 74.55
5201.5 74.41
5203.5 74.40
5205.5 74.26
5207.5 74.01
5209.5 73.82
5211.5 74.10
5213.5 74.25
5215.5 74.35
5217.5 74.35
5219.5 74.26
5221.5 74.37
5223.5 74.73
5225.5 74.82
5227.5 74.73
5229.5 74.86
5231.5 75.14
5233.5 75.25
5235.5 75.03
5237.5 75.11
5239.5 75.52
5241.5 75.97
5243.5 75.74
5245.5 75.46
5247.5 75.50
5249.5 75.67
5251.5 75.78
5253.5 75.58
5255.5 75.36
5257.5 75.17
5259.5 75.19
5261.5 74.83
5263.5 74.70
5265.5 74.65
5267.5 74.50
5269.5 74.32
5271.5 74.01
5273.5 73.75
5275.5 73.33
5277.5 72.86
5279.5 72.67
5281.5 72.39
5283.5 72.02
5285.5 71.68
5287.5 71.41
5289.5 70.97
5291.5 70.69
5293.5 70.32
5295.5 69.71
5297.5 69.14
5299.5 68.73
5301.5 68.39
5303.5 68.05
5305.5 67.51
5307.5 66.99
5309.5 66.65
5311.5 66.22
5313.5 65.64
5315.5 65.14
5317.5 64.63
5319.5 64.26
5321.5 64.07
5323.5 63.59
5325.5 63.08
5327.5 62.76
5329.5 62.31
5331.5 61.88
5333.5 61.55
5335.5 61.18
5337.5 60.76
5339.5 60.62
5341.5 60.44
5343.5 60.21
5345.5 59.87
5347.5 59.81
5349.5 59.63
5351.5 59.33
5353.5 59.01
5355.5 58.86
5357.5 58.63
5359.5 58.33
5361.5 58.04
5363.5 58.09
5365.5 58.04
5367.5 57.94
5369.5 57.87
5371.5 57.80
5373.5 57.74
5375.5 57.68
5377.5 57.48
5379.5 57.34
5381.5 57.40
5383.5 57.58
5385.5 57.61
5387.5 57.64
5389.5 57.63
5391.5 57.72
5393.5 57.92
5395.5 57.91
5397.5 57.92
5399.5 58.18
5401.5 58.43
5403.5 58.61
5405.5 58.80
5407.5 58.93
5409.5 59.13
5411.5 59.33
5413.5 59.39
5415.5 59.37
5417.5 59.33
5419.5 59.42
5421.5 59.40
5423.5 59.20
5425.5 58.86
5427.5 58.46
5429.5 57.95
5431.5 57.11
5433.5 55.98
5435.5 54.66
5437.5 53.16
5439.5 51.52
5441.5 49.54
5443.5 47.34
5445.5 44.98
5447.5 42.47
5449.5 39.95
5451.5 37.29
5453.5 34.51
5455.5 31.77
5457.5 29.09
5459.5 26.42
5461.5 23.89
5463.5 21.67
5465.5 19.59
5467.5 17.41
5469.5 15.36
5471.5 13.59
5473.5 12.03
5475.5 10.63
5477.5 9.36
5479.5 8.27
5481.5 7.31
5483.5 6.44
5485.5 5.66
5487.5 4.96
5489.5 4.33
5491.5 3.81
5493.5 3.40
5495.5 3.00
5497.5 2.62
5499.5 2.29
5501.5 2.01
5503.5 1.76
5505.5 1.55
5507.5 1.35
5509.5 1.15
5511.5 0.99
5513.5 0.85
5515.5 0.74
5517.5 0.65
5519.5 0.53
5521.5 0.43
5523.5 0.33
5525.5 0.27
5527.5 0.24
5529.5 0.21
5531.5 0.20
5533.5 0.15
5535.5 0.13
5537.5 0.10
5539.5 0.07
5541.5 0.06
5543.5 0.01
5545.5 0.00
5547.5 0.00
