# B815 filter from Dave & Anne
#      WAVELENGTH      THROUGHPUT
#       angstroms         
7899   0
7899.5 0.05
7901.5 0.10
7903.5 0.11
7905.5 0.14
7907.5 0.15
7909.5 0.19
7911.5 0.23
7913.5 0.24
7915.5 0.26
7917.5 0.30
7919.5 0.31
7921.5 0.34
7923.5 0.37
7925.5 0.39
7927.5 0.42
7929.5 0.46
7931.5 0.49
7933.5 0.54
7935.5 0.59
7937.5 0.62
7939.5 0.67
7941.5 0.70
7943.5 0.77
7945.5 0.82
7947.5 0.90
7949.5 0.95
7951.5 1.02
7953.5 1.10
7955.5 1.23
7957.5 1.33
7959.5 1.46
7961.5 1.60
7963.5 1.76
7965.5 1.95
7967.5 2.16
7969.5 2.39
7971.5 2.69
7973.5 3.05
7975.5 3.46
7977.5 3.91
7979.5 4.44
7981.5 5.02
7983.5 5.77
7985.5 6.55
7987.5 7.44
7989.5 8.45
7991.5 9.50
7993.5 10.63
7995.5 11.90
7997.5 13.27
7999.5 14.74
8001.5 16.30
8003.5 17.99
8005.5 19.82
8007.5 21.78
8009.5 23.88
8011.5 26.16
8013.5 28.57
8015.5 31.12
8017.5 33.79
8019.5 36.72
8021.5 39.75
8023.5 42.79
8025.5 46.01
8027.5 49.13
8029.5 52.16
8031.5 55.21
8033.5 58.10
8035.5 60.82
8037.5 63.26
8039.5 65.42
8041.5 67.39
8043.5 68.94
8045.5 70.17
8047.5 71.02
8049.5 71.56
8051.5 71.89
8053.5 71.88
8055.5 71.46
8057.5 71.02
8059.5 70.55
8061.5 70.07
8063.5 69.60
8065.5 69.23
8067.5 69.05
8069.5 68.99
8071.5 68.97
8073.5 69.07
8075.5 69.30
8077.5 69.57
8079.5 69.96
8081.5 70.44
8083.5 70.96
8085.5 71.50
8087.5 72.26
8089.5 72.89
8091.5 73.58
8093.5 74.28
8095.5 74.92
8097.5 75.64
8099.5 76.41
8101.5 77.13
8103.5 77.76
8105.5 78.46
8107.5 79.19
8109.5 79.84
8111.5 80.41
8113.5 81.00
8115.5 81.55
8117.5 82.05
8119.5 82.61
8121.5 83.07
8123.5 83.54
8125.5 84.02
8127.5 84.32
8129.5 84.62
8131.5 84.94
8133.5 85.23
8135.5 85.42
8137.5 85.49
8139.5 85.59
8141.5 85.73
8143.5 85.92
8145.5 86.04
8147.5 86.04
8149.5 86.03
8151.5 85.89
8153.5 85.96
8155.5 85.96
8157.5 85.94
8159.5 85.80
8161.5 85.78
8163.5 85.64
8165.5 85.44
8167.5 85.38
8169.5 85.25
8171.5 85.03
8173.5 84.83
8175.5 84.74
8177.5 84.68
8179.5 84.58
8181.5 84.46
8183.5 84.33
8185.5 84.22
8187.5 84.13
8189.5 84.06
8191.5 83.87
8193.5 83.54
8195.5 83.57
8197.5 83.68
8199.5 83.61
8201.5 83.53
8203.5 83.34
8205.5 83.22
8207.5 83.07
8209.5 82.95
8211.5 82.81
8213.5 82.63
8215.5 82.48
8217.5 82.20
8219.5 81.99
8221.5 81.73
8223.5 81.25
8225.5 80.79
8227.5 80.37
8229.5 79.84
8231.5 79.26
8233.5 78.50
8235.5 77.71
8237.5 76.88
8239.5 75.90
8241.5 74.82
8243.5 73.62
8245.5 72.34
8247.5 71.10
8249.5 69.72
8251.5 68.03
8253.5 66.19
8255.5 64.36
8257.5 62.40
8259.5 60.30
8261.5 58.10
8263.5 55.73
8265.5 53.28
8267.5 50.83
8269.5 48.32
8271.5 45.77
8273.5 43.15
8275.5 40.54
8277.5 38.01
8279.5 35.55
8281.5 33.09
8283.5 30.70
8285.5 28.41
8287.5 26.23
8289.5 24.12
8291.5 22.10
8293.5 20.22
8295.5 18.41
8297.5 16.81
8299.5 15.38
8301.5 14.04
8303.5 12.83
8305.5 11.70
8307.5 10.67
8309.5 9.78
8311.5 8.97
8313.5 8.23
8315.5 7.54
8317.5 6.91
8319.5 6.35
8321.5 5.89
8323.5 5.44
8325.5 5.00
8327.5 4.63
8329.5 4.28
8331.5 4.00
8333.5 3.72
8335.5 3.48
8337.5 3.24
8339.5 3.01
8341.5 2.83
8343.5 2.68
8345.5 2.53
8347.5 2.37
8349.5 2.20
8351.5 2.06
8353.5 1.96
8355.5 1.89
8357.5 1.79
8359.5 1.68
8361.5 1.57
8363.5 1.47
8365.5 1.40
8367.5 1.32
8369.5 1.26
8371.5 1.19
8373.5 1.14
8375.5 1.10
8377.5 1.03
8379.5 0.98
8381.5 0.94
8383.5 0.88
8385.5 0.83
8387.5 0.80
8389.5 0.75
8391.5 0.70
8393.5 0.66
8395.5 0.64
8397.5 0.61
8399.5 0.58
8401.5 0.54
8403.5 0.49
8405.5 0.45
8407.5 0.43
8409.5 0.41
8411.5 0.38
8413.5 0.35
8415.5 0.33
8417.5 0.30
8419.5 0.28
8421.5 0.28
8423.5 0.26
8425.5 0.23
8427.5 0.18
8429.5 0.16
8431.5 0.15
8433.5 0.14
8435.5 0.12
8437.5 0.09
8439.5 0.06
8441.5 0.04
8443.5 0.05
8445.5 0.02
8447.5 0.00

