# NICMOS camera 3 filter f110w
# wavelength throughput
#     A
        5995.   5.600000E-6 
        6000.  -6.600000E-6 
        6005.   5.800000E-6 
        6010.  -1.150000E-5 
        6015.  -2.280000E-5 
        6020.  -1.720000E-5 
        6025.  -1.020000E-5 
        6030.  -3.400000E-6 
        6035.  -2.410000E-5 
        6040.  -2.020000E-5 
        6045.  -1.960000E-5 
        6050.  -2.200000E-5 
        6055.  -7.600000E-6 
        6060.  -1.040000E-5 
        6065.  -1.110000E-5 
        6070.  -1.520000E-5 
        6075.  -1.590000E-5 
        6080.  -1.870000E-5 
        6085.  -7.000000E-6 
        6090.  -1.000000E-5 
        6095.  -2.690000E-5 
        6100.  -1.870000E-5 
        6105.  -1.230000E-5 
        6110.  -2.130000E-5 
        6115.  -1.340000E-5 
        6120.  -4.200000E-6 
        6125.  -1.160000E-5 
        6130.  -6.900000E-6 
        6135.  -5.400000E-6 
        6140.  -2.300000E-6 
        6145.  -1.120000E-5 
        6150.  -1.120000E-5 
        6155.  -5.200000E-6 
        6160.  -6.800000E-6 
        6165.  -2.010000E-5 
        6170.  -1.490000E-5 
        6175.  -2.030000E-5 
        6180.  -1.000000E-6 
        6185.  -5.500000E-6 
        6190.  -9.599999E-6 
        6195.  -2.160000E-5 
        6200.   4.300000E-6 
        6205.   4.000000E-6 
        6210.  -1.649000E-9 
        6215.  -1.750000E-5 
        6220.   3.800000E-6 
        6225.  -1.710000E-5 
        6230.   6.000000E-7 
        6235.  -1.300000E-5 
        6240.   3.800000E-6 
        6245.  -1.310000E-5 
        6250.  -1.180000E-5 
        6255.  -1.200000E-5 
        6260.  -2.480000E-5 
        6265.  -2.120000E-5 
        6270.  -6.700000E-6 
        6275.  -1.280000E-5 
        6280.   3.000000E-6 
        6285.  -1.200000E-5 
        6290.  -2.080000E-5 
        6295.  -7.300000E-6 
        6300.  -1.810000E-5 
        6305.  -1.990000E-5 
        6310.  -6.100000E-6 
        6315.  -1.230000E-5 
        6320.  -9.300000E-6 
        6325.  -1.710000E-5 
        6330.  -2.640000E-5 
        6335.  -2.180000E-5 
        6340.  -2.800000E-5 
        6345.  -9.999999E-8 
        6350.  -3.030000E-5 
        6355.  -1.330000E-5 
        6360.   1.400000E-6 
        6365.   4.900000E-6 
        6370.  -3.560000E-5 
        6375.  -2.700000E-6 
        6380.  -7.600000E-6 
        6385.  -2.870000E-5 
        6390.   7.200000E-6 
        6395.   2.400000E-6 
        6400.  -8.800000E-6 
        6405.  -4.010000E-5 
        6410.  -3.100000E-5 
        6415.   2.700000E-6 
        6420.   1.100000E-6 
        6425.  -3.500000E-6 
        6430.  -3.000000E-7 
        6435.   2.900000E-6 
        6440.  -1.870000E-5 
        6445.  -6.200000E-6 
        6450.  -2.290000E-5 
        6455.  -8.999999E-6 
        6460.  -1.640000E-5 
        6465.  -2.700000E-6 
        6470.   5.000000E-6 
        6475.  -8.500000E-6 
        6480.  -3.070000E-5 
        6485.  -1.560000E-5 
        6490.  -2.200000E-6 
        6495.   5.900000E-6 
        6500.  -2.700000E-5 
        6505.  -2.340000E-5 
        6510.  -9.200000E-6 
        6515.  -2.510000E-5 
        6520.  -8.999999E-6 
        6525.   1.850000E-5 
        6530.  -4.600000E-6 
        6535.  -4.500000E-6 
        6540.  -4.500000E-6 
        6545.  -1.400000E-6 
        6550.   8.500000E-6 
        6555.  -2.030000E-5 
        6560.  -2.000000E-7 
        6565.  -3.180000E-5 
        6570.  -2.610000E-5 
        6575.  -1.320000E-5 
        6580.  -4.070200E-9 
        6585.  -2.200000E-5 
        6590.  -1.740000E-5 
        6595.  -4.000000E-7 
        6600.   5.500000E-6 
        6605.  -7.800000E-6 
        6610.  -8.800000E-6 
        6615.  -3.600000E-6 
        6620.  -3.700000E-6 
        6625.   6.000000E-6 
        6630.  -1.000000E-5 
        6635.   9.599999E-6 
        6640.  -1.160000E-5 
        6645.  -1.010000E-5 
        6650.   2.600000E-6 
        6655.  -6.300000E-6 
        6660.  -8.000000E-6 
        6665.  -1.580000E-5 
        6670.  -1.060000E-5 
        6675.  -3.450000E-5 
        6680.  -8.900000E-6 
        6685.  -1.800000E-6 
        6690.  -1.390000E-5 
        6695.   6.800000E-6 
        6700.  -1.060000E-5 
        6705.   2.900000E-6 
        6710.   8.600000E-6 
        6715. -6.651400E-10 
        6720.  -2.580000E-5 
        6725.  -8.000000E-7 
        6730.  -1.930000E-5 
        6735.   5.700000E-6 
        6740.  -1.790000E-5 
        6745.  -5.900000E-6 
        6750.   8.999999E-6 
        6755.  -1.930000E-5 
        6760.  -4.400000E-6 
        6765.   1.440000E-5 
        6770.  -2.520000E-5 
        6775.  -1.650000E-5 
        6780.  -7.000000E-6 
        6785.  -4.300000E-6 
        6790.  -1.790000E-5 
        6795.  -8.900000E-6 
        6800.  -2.030000E-5 
        6805.  -2.550000E-5 
        6810.  -5.900000E-6 
        6815.  -1.050000E-5 
        6820.  -5.000000E-7 
        6825.  -1.660000E-5 
        6830.  -1.010000E-5 
        6835.  -1.010000E-5 
        6840.  -1.320000E-5 
        6845.  -1.500000E-6 
        6850.   2.300000E-6 
        6855.  -1.160000E-5 
        6860.  -2.420000E-5 
        6865.  -4.400000E-6 
        6870.   4.100000E-6 
        6875.  -8.200001E-6 
        6880.  -2.520000E-5 
        6885.  -1.660000E-5 
        6890.  -9.200000E-6 
        6895.  -1.180000E-5 
        6900.  -2.600000E-5 
        6905.  -2.300000E-6 
        6910.  -1.380000E-5 
        6915.  -2.160000E-5 
        6920.  -1.320000E-5 
        6925.  -1.180000E-5 
        6930.  -1.050000E-5 
        6935.   7.000000E-7 
        6940.  -1.340000E-5 
        6945.  -4.300000E-6 
        6950.   1.641500E-8 
        6955.  -1.830000E-5 
        6960.  -2.020000E-5 
        6965.  -4.600000E-6 
        6970.  -1.500000E-5 
        6975.  -2.800000E-6 
        6980.  -8.800000E-6 
        6985.  -2.550000E-5 
        6990.  -2.010000E-5 
        6995.  -9.900000E-6 
        7000.  -2.100000E-5 
        7005.   3.300000E-6 
        7010.  -8.500000E-6 
        7015.  -6.200000E-6 
        7020.   1.000000E-6 
        7025.  -8.300000E-6 
        7030.  -3.100000E-6 
        7035.  -3.100000E-6 
        7040.   5.000000E-6 
        7045.  -3.810000E-5 
        7050.  -1.070000E-5 
        7055.  -1.400000E-5 
        7060.  -3.180000E-5 
        7065.  -2.600000E-5 
        7070.  -4.200000E-6 
        7075.  -1.330000E-5 
        7080.  -4.600000E-6 
        7085.  -1.510000E-5 
        7090.  -9.400000E-6 
        7095.  -1.430000E-5 
        7100.  -1.000000E-5 
        7105.  -1.490000E-5 
        7110.  -8.999999E-6 
        7115.  -2.180000E-5 
        7120.  -1.610000E-5 
        7125.  -1.810000E-5 
        7130.  -1.550000E-5 
        7135.  -6.000000E-6 
        7140.   8.300000E-6 
        7145.   9.256900E-9 
        7150.   8.100000E-6 
        7155.  -2.900000E-6 
        7160.  -1.170000E-5 
        7165.   5.900000E-6 
        7170.  -1.690000E-5 
        7175.  -8.200001E-6 
        7180.   1.070000E-5 
        7185.  -1.490000E-5 
        7190.  -2.020000E-5 
        7195.  -9.200000E-6 
        7200.   1.200000E-6 
        7205.  -1.180000E-5 
        7210.  -3.000000E-6 
        7215.   4.500000E-6 
        7220.  -1.290000E-5 
        7225.   2.357300E-8 
        7230.  -1.000000E-6 
        7235.  -6.200000E-6 
        7240.   4.800000E-6 
        7245.  -2.200000E-5 
        7250.  -1.070000E-5 
        7255.  -6.400000E-6 
        7260.  -1.270000E-5 
        7265.  -1.980000E-5 
        7270.  -8.600000E-6 
        7275.  -1.400000E-5 
        7280.  -1.250000E-5 
        7285.  -2.790000E-5 
        7290.  -2.100000E-5 
        7295.  -1.630000E-5 
        7300.  -6.400000E-6 
        7305.  -1.810000E-5 
        7310.  -1.130000E-5 
        7315.  -1.530000E-5 
        7320.  -2.600000E-6 
        7325.   1.600000E-6 
        7330.   4.600000E-6 
        7335.  -2.800000E-5 
        7340.  -1.500000E-5 
        7345.  -6.300000E-6 
        7350.   8.500000E-6 
        7355.   6.100000E-6 
        7360.   3.700000E-6 
        7365.  -2.260000E-5 
        7370.  -2.700000E-6 
        7375.  -1.860000E-5 
        7380.  -1.720000E-5 
        7385.  -7.500000E-6 
        7390.  -7.700000E-6 
        7395.  -1.240000E-5 
        7400.  -6.600000E-6 
        7405.  -1.140000E-5 
        7410.  -1.010000E-5 
        7415.  -2.480000E-5 
        7420.   3.500000E-6 
        7425.  -1.390000E-5 
        7430.  -8.100000E-6 
        7435.   2.035200E-8 
        7440.   4.100000E-6 
        7445.  -7.500000E-6 
        7450.  -8.200001E-6 
        7455.   3.800000E-6 
        7460.   1.450000E-5 
        7465.  -2.020000E-5 
        7470.  -6.300000E-6 
        7475.  -1.110000E-5 
        7480.  -1.770000E-5 
        7485.  -9.100000E-6 
        7490.   8.600000E-6 
        7495.  -2.450000E-5 
        7500.  -8.200001E-6 
        7505.  -1.500000E-6 
        7510.  -1.940000E-5 
        7515.  -3.100000E-6 
        7520.  -4.350000E-5 
        7525.  -1.910000E-5 
        7530.   4.700000E-6 
        7535.  -1.510000E-5 
        7540.  -9.400000E-6 
        7545.   1.000000E-6 
        7550.   7.000000E-6 
        7555.   5.300000E-6 
        7560.   2.480000E-5 
        7565.   5.000000E-7 
        7570.   3.800000E-5 
        7575.   2.220000E-5 
        7580.   4.170000E-5 
        7585.   6.960000E-5 
        7590.   7.610000E-5 
        7595.   1.342000E-4 
        7600.   1.779000E-4 
        7605.   2.511000E-4 
        7610.   3.153000E-4 
        7615.   4.256000E-4 
        7620.   5.534000E-4 
        7625.   6.834000E-4 
        7630.   8.810000E-4 
        7635.     0.0010573 
        7640.     0.0012592 
        7645.     0.0014717 
        7650.      0.001689 
        7655.     0.0018875 
        7660.     0.0020791 
        7665.     0.0022541 
        7670.     0.0024533 
        7675.     0.0025903 
        7680.     0.0027354 
        7685.     0.0028622 
        7690.     0.0029595 
        7695.     0.0030851 
        7700.     0.0031276 
        7705.     0.0032358 
        7710.     0.0033004 
        7715.     0.0033819 
        7720.     0.0035051 
        7725.     0.0036194 
        7730.     0.0037461 
        7735.     0.0039061 
        7740.     0.0040999 
        7745.     0.0043334 
        7750.     0.0045946 
        7755.     0.0048448 
        7760.     0.0051709 
        7765.     0.0055244 
        7770.     0.0059431 
        7775.     0.0063688 
        7780.     0.0068629 
        7785.     0.0074303 
        7790.   0.008072999 
        7795.     0.0088309 
        7800.     0.0096753 
        7805.     0.0106119 
        7810.     0.0117556 
        7815.     0.0130618 
        7820.     0.0145214 
        7825.     0.0162457 
        7830.     0.0182031 
        7835.     0.0203892 
        7840.     0.0229777 
        7845.     0.0257578 
        7850.      0.029026 
        7855.     0.0327367 
        7860.     0.0366816 
        7865.     0.0412281 
        7870.     0.0460965 
        7875.      0.051185 
        7880.     0.0567299 
        7885.     0.0623052 
        7890.     0.0680274 
        7895.     0.0738834 
        7900.     0.0795457 
        7905.     0.0853029 
        7910.     0.0908381 
        7915.     0.0962636 
        7920.     0.1019218 
        7925.     0.1072139 
        7930.     0.1126857 
        7935.     0.1183724 
        7940.      0.124357 
        7945.     0.1306299 
        7950.     0.1374536 
        7955.     0.1449664 
        7960.     0.1535709 
        7965.     0.1630392 
        7970.     0.1738086 
        7975.     0.1861829 
        7980.     0.1998783 
        7985.     0.2155709 
        7990.     0.2333363 
        7995.     0.2531233 
        8000.     0.2760426 
        8005.     0.3003588 
        8010.     0.3280621 
        8015.     0.3580674 
        8020.     0.3901378 
        8025.     0.4241954 
        8030.     0.4601358 
        8035.     0.4971036 
        8040.     0.5359246 
        8045.     0.5734033 
        8050.     0.6103221 
        8055.     0.6474373 
        8060.     0.6812855 
        8065.     0.7140008 
        8070.     0.7444122 
        8075.     0.7717981 
        8080.     0.7965851 
        8085.     0.8201164 
        8090.     0.8395144 
        8095.     0.8563413 
        8100.     0.8702875 
        8105.     0.8802913 
        8110.     0.8872734 
        8115.     0.8914227 
        8120.     0.8942844 
        8125.     0.8947694 
        8130.     0.8948116 
        8135.     0.8943927 
        8140.     0.8935786 
        8145.      0.893611 
        8150.     0.8944288 
        8155.     0.8944415 
        8160.     0.8940865 
        8165.     0.8936858 
        8170.     0.8922045 
        8175.     0.8891515 
        8180.     0.8847767 
        8185.     0.8784878 
        8190.      0.870032 
        8195.     0.8595992 
        8200.     0.8492064 
        8205.     0.8376487 
        8210.      0.826151 
        8215.     0.8141735 
        8220.     0.8040923 
        8225.      0.794493 
        8230.      0.786305 
        8235.     0.7795506 
        8240.      0.775053 
        8245.      0.771506 
        8250.      0.769213 
        8255.      0.768152 
        8260.     0.7679285 
        8265.     0.7671041 
        8270.     0.7667266 
        8275.     0.7655813 
        8280.     0.7628269 
        8285.     0.7592643 
        8290.     0.7564085 
        8295.     0.7522089 
        8300.     0.7488322 
        8305.     0.7460525 
        8310.     0.7445332 
        8315.     0.7452511 
        8325.      0.753886 
        8330.     0.7605761 
        8335.     0.7694267 
        8340.     0.7778218 
        8345.     0.7861821 
        8350.     0.7927181 
        8355.     0.7971131 
        8360.     0.7972935 
        8365.     0.7948944 
        8370.     0.7890397 
        8375.      0.781596 
        8380.     0.7725331 
        8385.     0.7644038 
        8390.     0.7559622 
        8395.     0.7510357 
        8400.     0.7478197 
        8405.     0.7465039 
        8410.     0.7464175 
        8415.     0.7474062 
        8420.     0.7465892 
        8425.      0.743369 
        8430.     0.7361148 
        8435.     0.7238944 
        8440.     0.7064248 
        8445.     0.6855437 
        8450.     0.6614559 
        8455.     0.6361282 
        8460.     0.6111749 
        8465.      0.589475 
        8470.     0.5718566 
        8475.     0.5606247 
        8480.     0.5544287 
        8485.     0.5566195 
        8490.     0.5662685 
        8495.     0.5835612 
        8500.     0.6080399 
        8505.     0.6376704 
        8510.     0.6716101 
        8515.     0.7064658 
        8520.     0.7392949 
        8525.     0.7663087 
        8530.     0.7810642 
        8535.      0.785731 
        8540.      0.776825 
        8545.     0.7564596 
        8550.     0.7267154 
        8555.     0.6927374 
        8560.      0.657521 
        8565.     0.6247741 
        8570.     0.5966319 
        8575.     0.5741374 
        8580.     0.5577303 
        8585.     0.5504337 
        8590.     0.5486406 
        8595.     0.5537317 
        8600.     0.5651158 
        8605.     0.5827541 
        8610.     0.6054005 
        8615.     0.6318308 
        8620.      0.659871 
        8625.     0.6888489 
        8630.     0.7188762 
        8635.      0.745347 
        8640.     0.7684271 
        8645.     0.7901028 
        8650.     0.8042829 
        8655.     0.8173039 
        8660.     0.8256729 
        8665.     0.8305433 
        8670.     0.8361359 
        8675.     0.8411199 
        8680.      0.847401 
        8685.     0.8540781 
        8690.     0.8611023 
        8695.     0.8704461 
        8700.     0.8762934 
        8705.     0.8821264 
        8710.     0.8824458 
        8715.     0.8758208 
        8720.     0.8663366 
        8725.      0.850744 
        8730.      0.825197 
        8735.     0.7994679 
        8740.     0.7671469 
        8745.     0.7349968 
        8750.     0.6976849 
        8755.     0.6690657 
        8760.       0.64355 
        8765.     0.6188552 
        8770.     0.5972468 
        8775.     0.5790851 
        8780.     0.5655291 
        8785.     0.5517413 
        8790.      0.541363 
        8795.     0.5305426 
        8800.      0.517748 
        8805.     0.5064898 
        8810.     0.4940565 
        8815.     0.4802503 
        8820.     0.4659486 
        8825.     0.4510917 
        8830.     0.4339194 
        8835.     0.4171619 
        8840.     0.4041335 
        8845.     0.3918447 
        8850.     0.3821796 
        8855.     0.3752922 
        8860.     0.3702587 
        8865.     0.3689924 
        8870.     0.3712989 
        8875.     0.3778115 
        8880.     0.3874503 
        8885.     0.3998101 
        8890.     0.4156484 
        8895.     0.4345199 
        8900.     0.4531734 
        8905.      0.470412 
        8910.     0.4864328 
        8915.     0.4991546 
        8920.     0.5074108 
        8925.     0.5095593 
        8930.     0.5060632 
        8935.     0.4977411 
        8940.     0.4851405 
        8945.     0.4700836 
        8950.     0.4534193 
        8955.     0.4365772 
        8960.     0.4217645 
        8965.     0.4103618 
        8970.     0.4014015 
        8975.     0.3964054 
        8980.     0.3957918 
        8985.     0.3994805 
        8990.     0.4078628 
        8995.     0.4218036 
        9000.     0.4382673 
        9005.     0.4610683 
        9010.     0.4884782 
        9015.      0.520567 
        9020.     0.5567891 
        9025.     0.5936009 
        9030.     0.6317508 
        9035.     0.6700793 
        9040.     0.7045271 
        9045.      0.739001 
        9050.     0.7683561 
        9055.      0.790321 
        9060.     0.8068216 
        9065.     0.8186292 
        9070.     0.8248008 
        9075.     0.8288321 
        9080.     0.8301833 
        9085.     0.8302489 
        9090.     0.8306767 
        9095.     0.8313282 
        9100.     0.8334073 
        9105.     0.8369319 
        9110.     0.8410337 
        9115.     0.8466356 
        9120.     0.8523758 
        9125.     0.8585827 
        9130.     0.8634987 
        9135.     0.8684734 
        9140.     0.8727303 
        9145.     0.8762197 
        9150.     0.8779778 
        9155.     0.8791389 
        9160.     0.8790498 
        9165.     0.8787737 
        9170.     0.8781193 
        9175.     0.8775652 
        9180.     0.8768953 
        9185.     0.8761094 
        9190.     0.8760669 
        9195.     0.8748562 
        9200.     0.8740272 
        9205.     0.8723484 
        9210.     0.8691232 
        9215.     0.8650196 
        9220.     0.8595768 
        9225.     0.8528062 
        9230.      0.844444 
        9235.      0.834287 
        9240.     0.8229868 
        9245.     0.8107018 
        9250.      0.799752 
        9255.     0.7884884 
        9260.     0.7775826 
        9265.     0.7685283 
        9270.     0.7597016 
        9275.     0.7532255 
        9280.     0.7487729 
        9285.     0.7465141 
        9290.     0.7463414 
        9295.     0.7478513 
        9300.     0.7508052 
        9305.     0.7558882 
        9310.     0.7620748 
        9315.     0.7690356 
        9320.     0.7765931 
        9325.       0.78396 
        9330.     0.7915103 
        9335.      0.799474 
        9340.     0.8059923 
        9345.     0.8126104 
        9350.     0.8172401 
        9355.     0.8217002 
        9360.      0.825264 
        9365.     0.8285835 
        9370.     0.8311565 
        9375.     0.8330804 
        9380.     0.8347828 
        9385.     0.8359743 
        9390.     0.8378329 
        9395.     0.8388637 
        9400.     0.8397738 
        9405.     0.8405283 
        9410.     0.8411132 
        9415.      0.841579 
        9420.     0.8414738 
        9425.     0.8406418 
        9430.     0.8405438 
        9435.     0.8393245 
        9440.     0.8384974 
        9445.     0.8378756 
        9450.     0.8372948 
        9455.     0.8372504 
        9460.     0.8377932 
        9465.     0.8383381 
        9470.      0.839839 
        9475.     0.8410911 
        9480.     0.8425972 
        9485.     0.8447113 
        9490.     0.8463234 
        9495.      0.847811 
        9500.     0.8487785 
        9505.     0.8485926 
        9510.     0.8476216 
        9515.     0.8456038 
        9520.     0.8433421 
        9525.     0.8396203 
        9530.     0.8352174 
        9535.     0.8310295 
        9540.     0.8267863 
        9545.     0.8224837 
        9550.     0.8191464 
        9555.     0.8165579 
        9560.     0.8151035 
        9565.     0.8151422 
        9570.     0.8161646 
        9575.     0.8186072 
        9580.     0.8224383 
        9585.     0.8276866 
        9590.     0.8337883 
        9595.     0.8405001 
        9600.     0.8470647 
        9605.     0.8534774 
        9610.     0.8597499 
        9615.     0.8653363 
        9620.     0.8701652 
        9625.     0.8743531 
        9630.     0.8767092 
        9635.     0.8779728 
        9640.     0.8788807 
        9645.     0.8786858 
        9650.     0.8783417 
        9655.     0.8778192 
        9660.     0.8774466 
        9665.     0.8770015 
        9670.     0.8772923 
        9675.     0.8778071 
        9680.     0.8795325 
        9685.     0.8812206 
        9690.      0.883066 
        9695.     0.8852969 
        9700.     0.8874134 
        9705.     0.8890942 
        9710.     0.8908167 
        9715.     0.8915294 
        9720.     0.8914268 
        9725.     0.8911743 
        9730.     0.8901713 
        9735.     0.8885561 
        9740.      0.886802 
        9745.     0.8850299 
        9750.     0.8833578 
        9755.     0.8824911 
        9760.      0.882469 
        9765.     0.8832657 
        9770.     0.8848804 
        9775.     0.8874247 
        9780.     0.8910049 
        9785.      0.894856 
        9790.     0.8994346 
        9795.     0.9037321 
        9800.     0.9080093 
        9805.     0.9118716 
        9810.     0.9146436 
        9815.     0.9158897 
        9820.     0.9164242 
        9825.     0.9144703 
        9830.     0.9120486 
        9835.     0.9081133 
        9840.     0.9028664 
        9845.     0.8969465 
        9850.     0.8911991 
        9855.     0.8856091 
        9860.     0.8807836 
        9865.     0.8758841 
        9870.     0.8728698 
        9875.     0.8714682 
        9880.     0.8707573 
        9885.     0.8719507 
        9890.     0.8745591 
        9895.      0.878134 
        9900.     0.8828796 
        9905.     0.8882097 
        9910.     0.8938292 
        9915.     0.8994578 
        9920.     0.9045842 
        9925.     0.9089236 
        9930.     0.9126608 
        9935.     0.9153748 
        9940.     0.9162768 
        9945.     0.9165986 
        9950.     0.9156662 
        9955.     0.9141011 
        9960.     0.9122833 
        9965.     0.9099567 
        9970.     0.9073116 
        9975.     0.9057438 
        9980.     0.9042232 
        9985.     0.9032652 
        9990.     0.9032792 
        9995.     0.9037004 
       10000.     0.9053372 
       10005.     0.9071551 
       10010.     0.9090389 
       10015.     0.9112707 
       10020.     0.9134867 
       10025.     0.9152982 
       10030.     0.9171724 
       10035.        0.9176 
       10040.     0.9182588 
       10045.     0.9179457 
       10050.     0.9169748 
       10055.     0.9157758 
       10060.     0.9139635 
       10065.     0.9118167 
       10070.     0.9103032 
       10075.     0.9088979 
       10080.     0.9077303 
       10085.     0.9071182 
       10090.     0.9070408 
       10095.     0.9068812 
       10100.     0.9076849 
       10105.     0.9081866 
       10110.     0.9091119 
       10115.     0.9096121 
       10120.     0.9093021 
       10125.     0.9084494 
       10130.     0.9064792 
       10135.     0.9032627 
       10140.     0.8989624 
       10145.     0.8938529 
       10150.      0.886764 
       10155.     0.8789926 
       10160.     0.8700789 
       10165.     0.8610826 
       10170.     0.8523902 
       10175.     0.8437769 
       10180.     0.8351113 
       10185.      0.827482 
       10190.     0.8200728 
       10195.     0.8147482 
       10200.     0.8107098 
       10205.      0.807535 
       10210.     0.8058493 
       10215.     0.8053795 
       10220.     0.8059505 
       10225.     0.8074003 
       10230.     0.8094861 
       10235.     0.8117044 
       10250.     0.8191414 
       10255.     0.8212247 
       10260.     0.8220816 
       10265.     0.8227983 
       10270.     0.8225451 
       10275.     0.8218827 
       10280.     0.8203766 
       10285.     0.8190059 
       10290.     0.8171672 
       10295.     0.8153704 
       10300.      0.813655 
       10305.       0.81253 
       10310.     0.8116083 
       10315.     0.8111017 
       10320.     0.8112897 
       10325.     0.8118932 
       10330.     0.8132665 
       10335.     0.8146968 
       10340.     0.8173627 
       10345.     0.8191705 
       10350.     0.8219509 
       10355.     0.8247321 
       10360.     0.8269362 
       10365.     0.8299742 
       10370.     0.8321339 
       10375.     0.8345206 
       10380.     0.8374841 
       10385.     0.8396397 
       10390.     0.8427011 
       10395.     0.8455595 
       10400.     0.8487987 
       10405.     0.8523529 
       10410.     0.8572753 
       10415.     0.8617933 
       10420.     0.8671046 
       10425.     0.8727168 
       10430.     0.8779199 
       10435.     0.8832598 
       10440.     0.8886686 
       10445.     0.8926677 
       10450.     0.8954395 
       10455.     0.8962371 
       10460.     0.8950518 
       10465.     0.8916712 
       10470.     0.8855391 
       10475.     0.8763795 
       10480.     0.8647936 
       10485.      0.851645 
       10490.     0.8357556 
       10495.     0.8195477 
       10500.     0.8013699 
       10505.     0.7818491 
       10510.     0.7622507 
       10515.     0.7454931 
       10520.     0.7290292 
       10525.     0.7139466 
       10530.     0.6998174 
       10535.     0.6876719 
       10540.     0.6777065 
       10545.     0.6704656 
       10550.        0.6657 
       10555.     0.6626625 
       10560.     0.6618741 
       10565.     0.6636379 
       10570.     0.6669788 
       10575.     0.6723585 
       10580.     0.6793761 
       10585.     0.6879375 
       10590.     0.6976187 
       10595.      0.708454 
       10600.     0.7208401 
       10605.     0.7328616 
       10610.     0.7446558 
       10615.     0.7566797 
       10620.     0.7680635 
       10625.     0.7783681 
       10630.     0.7890649 
       10635.     0.7988016 
       10640.     0.8060774 
       10645.     0.8122705 
       10650.     0.8171122 
       10655.     0.8203257 
       10660.     0.8221398 
       10665.     0.8220941 
       10670.     0.8201802 
       10675.     0.8169731 
       10680.     0.8117288 
       10685.     0.8046179 
       10690.     0.7960228 
       10695.     0.7849391 
       10700.     0.7724917 
       10705.     0.7591744 
       10710.     0.7447232 
       10715.     0.7296925 
       10720.     0.7123199 
       10725.     0.6947026 
       10730.     0.6771918 
       10735.     0.6602003 
       10740.     0.6439162 
       10745.     0.6278772 
       10750.     0.6131176 
       10755.      0.598787 
       10760.     0.5856085 
       10765.     0.5755074 
       10770.     0.5668507 
       10775.     0.5595494 
       10780.     0.5543682 
       10785.     0.5511266 
       10790.     0.5500256 
       10795.     0.5510468 
       10800.     0.5540832 
       10805.     0.5589658 
       10810.       0.56617 
       10815.     0.5754836 
       10820.     0.5868803 
       10825.     0.6003672 
       10830.      0.615056 
       10835.     0.6308488 
       10840.     0.6489327 
       10845.     0.6679366 
       10850.     0.6882664 
       10855.      0.709768 
       10860.     0.7303713 
       10865.     0.7507902 
       10870.     0.7706231 
       10875.     0.7905401 
       10880.     0.8090178 
       10885.     0.8269114 
       10890.     0.8426939 
       10895.     0.8564668 
       10900.     0.8685425 
       10905.     0.8789997 
       10910.     0.8880441 
       10915.     0.8956204 
       10920.     0.9011279 
       10925.     0.9055029 
       10930.     0.9076448 
       10935.     0.9087079 
       10940.     0.9086727 
       10945.     0.9067965 
       10950.     0.9031085 
       10955.     0.8987425 
       10960.     0.8923619 
       10965.     0.8853544 
       10970.     0.8768135 
       10975.     0.8663543 
       10980.     0.8549731 
       10985.     0.8430102 
       10990.     0.8311996 
       10995.     0.8183098 
       11000.     0.8056641 
       11005.     0.7931981 
       11010.     0.7808493 
       11015.     0.7694966 
       11020.     0.7597327 
       11025.     0.7514917 
       11030.     0.7443604 
       11035.     0.7387695 
       11040.     0.7348038 
       11045.     0.7332324 
       11050.     0.7330632 
       11055.     0.7353607 
       11060.     0.7398158 
       11065.     0.7457635 
       11070.       0.75392 
       11075.     0.7636128 
       11080.     0.7748333 
       11085.     0.7869946 
       11090.     0.7999564 
       11095.     0.8130986 
       11100.     0.8274521 
       11105.     0.8419538 
       11110.      0.855016 
       11115.     0.8664843 
       11120.     0.8771992 
       11125.     0.8860952 
       11130.     0.8930532 
       11135.     0.8984481 
       11140.     0.9018445 
       11145.     0.9032305 
       11150.     0.9026637 
       11155.     0.9008276 
       11160.     0.8977749 
       11165.     0.8944887 
       11170.     0.8897182 
       11175.     0.8853962 
       11180.     0.8813582 
       11185.     0.8775586 
       11190.     0.8747149 
       11195.      0.872462 
       11200.      0.870919 
       11205.     0.8706422 
       11210.      0.870985 
       11215.     0.8720049 
       11220.     0.8739046 
       11225.     0.8760471 
       11230.     0.8787792 
       11235.     0.8815664 
       11240.     0.8838612 
       11245.     0.8858227 
       11250.     0.8872694 
       11255.     0.8880544 
       11260.     0.8881415 
       11265.     0.8870242 
       11270.     0.8852981 
       11275.     0.8830701 
       11280.     0.8799624 
       11285.     0.8763811 
       11290.     0.8723063 
       11295.     0.8678663 
       11300.     0.8637082 
       11305.     0.8597276 
       11310.     0.8561134 
       11315.     0.8533435 
       11320.     0.8508616 
       11325.     0.8495728 
       11330.     0.8486263 
       11335.     0.8486918 
       11340.     0.8498048 
       11345.     0.8512503 
       11350.     0.8534403 
       11355.     0.8558851 
       11360.     0.8589977 
       11365.     0.8615617 
       11370.     0.8645398 
       11375.     0.8664839 
       11380.     0.8680836 
       11385.     0.8687059 
       11390.     0.8687588 
       11395.     0.8676717 
       11400.      0.865624 
       11405.     0.8622206 
       11410.     0.8582838 
       11415.     0.8533456 
       11420.     0.8475002 
       11425.     0.8407751 
       11430.     0.8349009 
       11435.     0.8287016 
       11440.     0.8227234 
       11445.     0.8171622 
       11450.     0.8121461 
       11455.     0.8078369 
       11460.     0.8047903 
       11465.     0.8026728 
       11470.     0.8021013 
       11475.     0.8028104 
       11480.     0.8045813 
       11485.     0.8079731 
       11490.     0.8125892 
       11495.     0.8181059 
       11500.     0.8244677 
       11505.     0.8319954 
       11510.     0.8398272 
       11515.     0.8490616 
       11520.     0.8578578 
       11525.     0.8665155 
       11530.     0.8748618 
       11535.     0.8827677 
       11540.     0.8899726 
       11545.     0.8966864 
       11550.     0.9024585 
       11555.      0.906594 
       11560.     0.9099692 
       11565.     0.9119603 
       11570.     0.9134088 
       11575.     0.9135496 
       11580.      0.913026 
       11585.     0.9116364 
       11590.     0.9098118 
       11595.     0.9079853 
       11600.     0.9058086 
       11605.     0.9036276 
       11610.     0.9015553 
       11615.     0.9000673 
       11620.     0.8987592 
       11625.      0.897807 
       11630.     0.8975961 
       11635.     0.8975676 
       11640.     0.8981465 
       11645.     0.8988734 
       11650.     0.8998311 
       11655.     0.9011866 
       11660.      0.901562 
       11665.     0.9030716 
       11670.     0.9037037 
       11675.     0.9041434 
       11680.     0.9040807 
       11685.     0.9040226 
       11690.     0.9027154 
       11695.      0.901659 
       11700.     0.8998477 
       11705.     0.8975309 
       11710.     0.8951357 
       11715.     0.8923448 
       11720.     0.8899434 
       11725.     0.8872033 
       11730.     0.8846653 
       11735.     0.8824465 
       11740.     0.8803101 
       11745.     0.8788908 
       11750.     0.8781125 
       11755.     0.8779349 
       11760.     0.8779916 
       11765.     0.8787714 
       11770.     0.8801928 
       11775.     0.8818477 
       11780.     0.8840342 
       11785.     0.8864678 
       11790.     0.8888671 
       11795.     0.8913414 
       11800.       0.89355 
       11805.     0.8953543 
       11810.     0.8962678 
       11815.     0.8963343 
       11820.     0.8959763 
       11825.     0.8943365 
       11830.     0.8916095 
       11835.     0.8880445 
       11840.     0.8832299 
       11845.     0.8778896 
       11850.     0.8716224 
       11855.     0.8645609 
       11860.     0.8565426 
       11865.     0.8483874 
       11870.      0.840678 
       11875.     0.8329126 
       11880.     0.8257825 
       11885.     0.8188429 
       11890.     0.8124975 
       11895.     0.8069075 
       11900.     0.8025142 
       11905.     0.7995467 
       11910.     0.7974064 
       11915.     0.7966536 
       11920.     0.7973244 
       11925.     0.7993415 
       11930.     0.8030331 
       11935.     0.8075475 
       11940.     0.8131311 
       11945.     0.8199811 
       11950.     0.8279072 
       11955.     0.8369926 
       11960.     0.8468046 
       11965.     0.8573335 
       11970.     0.8671455 
       11975.     0.8772843 
       11980.     0.8874878 
       11985.     0.8971998 
       11990.     0.9073856 
       11995.     0.9158157 
       12000.     0.9244183 
       12005.     0.9313548 
       12010.     0.9368274 
       12015.     0.9418681 
       12020.     0.9451151 
       12025.     0.9477271 
       12030.     0.9488378 
       12035.     0.9490322 
       12040.      0.948761 
       12045.     0.9476216 
       12050.     0.9461063 
       12055.     0.9440469 
       12060.     0.9418045 
       12065.     0.9398627 
       12070.     0.9380004 
       12075.     0.9358037 
       12080.     0.9342803 
       12085.      0.933091 
       12090.     0.9318374 
       12095.     0.9318384 
       12100.     0.9311964 
       12105.     0.9316121 
       12110.     0.9335842 
       12115.     0.9326734 
       12120.     0.9331552 
       12125.     0.9344218 
       12130.      0.935066 
       12135.     0.9359727 
       12140.     0.9363608 
       12145.     0.9368426 
       12150.     0.9370052 
       12155.      0.936275 
       12160.     0.9362684 
       12165.     0.9344721 
       12170.      0.933909 
       12175.     0.9327925 
       12180.     0.9309325 
       12185.      0.929292 
       12190.       0.92739 
       12195.     0.9257954 
       12200.     0.9239973 
       12205.     0.9224183 
       12210.     0.9210075 
       12215.      0.919708 
       12220.     0.9189657 
       12225.     0.9183764 
       12230.     0.9182438 
       12235.     0.9178135 
       12240.      0.917963 
       12245.     0.9185198 
       12250.     0.9190891 
       12255.     0.9195827 
       12260.     0.9200631 
       12265.     0.9203843 
       12270.     0.9203919 
       12275.     0.9200709 
       12280.     0.9189552 
       12285.      0.917894 
       12290.     0.9158236 
       12295.     0.9132364 
       12300.     0.9097432 
       12305.     0.9056009 
       12310.     0.9003167 
       12315.     0.8947333 
       12320.     0.8886435 
       12325.     0.8820293 
       12330.     0.8749323 
       12335.     0.8676317 
       12340.     0.8593632 
       12345.     0.8520936 
       12350.     0.8446912 
       12355.     0.8375863 
       12360.     0.8307669 
       12365.     0.8244727 
       12370.     0.8181009 
       12375.     0.8132547 
       12380.     0.8089386 
       12385.     0.8055591 
       12390.     0.8031009 
       12395.     0.8013228 
       12400.     0.8005754 
       12405.      0.800821 
       12410.     0.8020864 
       12415.     0.8039959 
       12420.     0.8072532 
       12425.     0.8107957 
       12430.     0.8153664 
       12435.     0.8206293 
       12440.     0.8263379 
       12445.     0.8326079 
       12450.     0.8391688 
       12455.     0.8459345 
       12460.     0.8533342 
       12465.     0.8604464 
       12470.      0.867496 
       12475.     0.8742344 
       12480.     0.8807195 
       12485.     0.8872126 
       12490.     0.8929636 
       12495.     0.8986432 
       12500.     0.9034399 
       12505.     0.9078447 
       12510.     0.9113615 
       12515.     0.9144534 
       12520.     0.9177787 
       12525.     0.9203659 
       12530.     0.9224503 
       12535.     0.9242077 
       12540.     0.9257864 
       12545.      0.926741 
       12550.     0.9279037 
       12555.     0.9287287 
       12560.     0.9299055 
       12565.     0.9308619 
       12570.     0.9316989 
       12575.     0.9325091 
       12580.      0.933292 
       12585.     0.9341948 
       12590.     0.9355212 
       12595.     0.9361667 
       12600.      0.937052 
       12605.     0.9377503 
       12610.     0.9385936 
       12615.      0.939351 
       12620.     0.9400035 
       12625.     0.9404411 
       12630.     0.9408298 
       12635.     0.9407631 
       12640.     0.9412065 
       12645.     0.9410751 
       12650.     0.9409702 
       12655.       0.94078 
       12660.     0.9404127 
       12665.     0.9402745 
       12670.     0.9400558 
       12675.     0.9398155 
       12680.     0.9395768 
       12685.     0.9396039 
       12690.     0.9396613 
       12695.      0.939813 
       12700.     0.9403266 
       12705.     0.9410103 
       12710.     0.9413363 
       12715.     0.9422824 
       12720.     0.9425251 
       12725.     0.9429656 
       12730.     0.9433661 
       12735.     0.9428267 
       12740.     0.9422417 
       12745.      0.941346 
       12750.     0.9391875 
       12755.     0.9361982 
       12760.      0.932625 
       12765.     0.9280528 
       12770.     0.9222428 
       12775.     0.9150808 
       12780.     0.9065573 
       12785.     0.8975425 
       12790.     0.8873658 
       12795.     0.8766857 
       12800.     0.8644831 
       12805.     0.8519028 
       12810.      0.838136 
       12815.     0.8243223 
       12820.     0.8113352 
       12825.     0.7975542 
       12830.     0.7842882 
       12835.     0.7712982 
       12840.      0.758422 
       12845.     0.7462029 
       12850.     0.7356338 
       12855.     0.7261385 
       12860.     0.7172805 
       12865.     0.7095202 
       12870.     0.7027097 
       12875.     0.6976245 
       12880.      0.693825 
       12885.     0.6913391 
       12890.      0.690271 
       12895.     0.6906294 
       12900.     0.6920626 
       12905.     0.6953515 
       12910.     0.6998881 
       12915.     0.7050595 
       12920.     0.7119394 
       12925.     0.7196004 
       12930.     0.7290574 
       12935.     0.7387702 
       12940.     0.7495288 
       12945.     0.7603291 
       12950.     0.7717732 
       12955.     0.7827477 
       12960.     0.7939687 
       12965.     0.8046992 
       12970.     0.8157946 
       12975.     0.8249884 
       12980.     0.8328989 
       12985.     0.8390965 
       12990.     0.8440384 
       12995.     0.8477121 
       13000.     0.8493089 
       13005.     0.8492739 
       13010.     0.8477601 
       13015.     0.8442552 
       13020.     0.8402932 
       13025.     0.8350098 
       13030.     0.8282521 
       13035.     0.8215117 
       13040.     0.8139125 
       13045.     0.8071962 
       13050.     0.8004365 
       13055.     0.7940078 
       13060.     0.7881744 
       13065.     0.7827209 
       13070.     0.7788616 
       13075.     0.7761034 
       13080.     0.7745667 
       13085.      0.774316 
       13090.     0.7752529 
       13095.     0.7776901 
       13100.     0.7820216 
       13105.     0.7870066 
       13110.     0.7935743 
       13115.     0.8009717 
       13120.     0.8098136 
       13125.     0.8196244 
       13130.     0.8301237 
       13135.     0.8404144 
       13140.     0.8506265 
       13145.     0.8606041 
       13150.     0.8699675 
       13155.     0.8784606 
       13160.     0.8855979 
       13165.     0.8905013 
       13170.     0.8932961 
       13175.     0.8940742 
       13180.     0.8922966 
       13185.     0.8877957 
       13190.     0.8809619 
       13195.     0.8712876 
       13200.     0.8602321 
       13205.     0.8471319 
       13210.     0.8326873 
       13215.     0.8170305 
       13220.     0.7992796 
       13225.     0.7812803 
       13230.     0.7646063 
       13235.     0.7480415 
       13240.     0.7317815 
       13245.     0.7166094 
       13250.     0.7024117 
       13255.      0.688764 
       13260.     0.6773785 
       13265.     0.6680889 
       13270.     0.6600592 
       13275.     0.6536314 
       13280.     0.6487862 
       13285.     0.6458789 
       13290.     0.6450632 
       13295.     0.6459506 
       13300.     0.6489463 
       13305.     0.6536489 
       13310.     0.6604671 
       13315.     0.6697395 
       13320.     0.6807359 
       13325.     0.6931754 
       13330.      0.707368 
       13335.     0.7228838 
       13340.     0.7397733 
       13345.     0.7596532 
       13350.     0.7803622 
       13355.     0.8002757 
       13360.     0.8206447 
       13365.     0.8410459 
       13370.     0.8603688 
       13375.     0.8795903 
       13380.     0.8967793 
       13385.     0.9113102 
       13390.     0.9222128 
       13395.     0.9299862 
       13400.      0.934564 
       13405.     0.9349788 
       13410.     0.9314287 
       13415.     0.9239224 
       13420.     0.9137401 
       13425.     0.9001676 
       13430.     0.8841197 
       13435.     0.8650764 
       13440.      0.845262 
       13445.     0.8228714 
       13450.      0.802237 
       13455.     0.7812405 
       13460.      0.761534 
       13465.     0.7414294 
       13470.      0.721934 
       13475.     0.7029055 
       13480.     0.6865895 
       13485.     0.6721007 
       13490.     0.6589461 
       13495.     0.6473429 
       13500.     0.6373922 
       13505.     0.6282344 
       13510.     0.6210864 
       13515.     0.6155466 
       13520.     0.6114307 
       13525.     0.6087096 
       13530.     0.6069085 
       13535.     0.6064735 
       13540.     0.6076487 
       13545.     0.6095941 
       13550.     0.6125386 
       13555.     0.6167435 
       13560.     0.6212089 
       13565.     0.6267343 
       13570.     0.6327218 
       13575.     0.6383668 
       13580.     0.6446001 
       13585.     0.6509674 
       13590.     0.6576072 
       13595.     0.6638308 
       13600.     0.6696564 
       13605.     0.6755379 
       13610.     0.6807388 
       13615.      0.685079 
       13620.     0.6890689 
       13625.     0.6926336 
       13630.     0.6949617 
       13635.     0.6963029 
       13640.     0.6970344 
       13645.     0.6969802 
       13650.     0.6965561 
       13655.     0.6957358 
       13660.     0.6946275 
       13665.     0.6931047 
       13670.     0.6909747 
       13675.     0.6887928 
       13680.      0.686613 
       13685.     0.6843928 
       13690.     0.6824844 
       13695.     0.6808131 
       13700.     0.6789143 
       13705.     0.6777813 
       13710.     0.6762688 
       13715.     0.6755855 
       13720.     0.6748548 
       13725.     0.6744593 
       13730.     0.6745234 
       13735.     0.6750126 
       13740.      0.675441 
       13745.     0.6766424 
       13750.     0.6778262 
       13755.     0.6794626 
       13760.     0.6810854 
       13765.     0.6832055 
       13770.      0.685075 
       13775.     0.6875182 
       13780.     0.6894059 
       13785.     0.6918043 
       13790.     0.6939396 
       13795.     0.6963965 
       13800.     0.6984525 
       13805.     0.7007833 
       13810.     0.7027574 
       13815.     0.7051007 
       13820.     0.7070324 
       13825.     0.7094662 
       13830.     0.7113852 
       13835.     0.7134907 
       13840.     0.7146462 
       13845.     0.7163956 
       13850.     0.7169727 
       13855.     0.7177457 
       13860.     0.7184118 
       13865.     0.7180226 
       13870.     0.7173823 
       13875.     0.7159276 
       13880.     0.7129411 
       13885.     0.7091082 
       13890.     0.7036537 
       13895.     0.6971722 
       13900.     0.6895556 
       13905.     0.6810067 
       13910.     0.6693479 
       13915.     0.6545789 
       13920.     0.6365989 
       13925.     0.6182469 
       13930.     0.5988921 
       13935.     0.5785887 
       13940.      0.557023 
       13945.     0.5333518 
       13950.      0.505122 
       13955.     0.4769537 
       13960.     0.4496539 
       13965.      0.422969 
       13970.     0.3981577 
       13975.     0.3745095 
       13980.     0.3501575 
       13985.     0.3282288 
       13990.     0.3070735 
       13995.     0.2858948 
       14000.      0.264353 
       14005.     0.2446426 
       14010.     0.2254809 
       14015.     0.2083697 
       14020.     0.1943835 
       14025.      0.181867 
       14030.     0.1702919 
       14035.     0.1586496 
       14040.     0.1473665 
       14045.     0.1368115 
       14050.     0.1274241 
       14055.     0.1192915 
       14060.     0.1113021 
       14065.     0.1043541 
       14070.     0.0980962 
       14075.     0.0919557 
       14080.     0.0862467 
       14085.     0.0811732 
       14090.     0.0763846 
       14095.     0.0722034 
       14100.     0.0679296 
       14105.     0.0638354 
       14110.     0.0604203 
       14115.     0.0574527 
       14120.      0.054655 
       14125.     0.0518236 
       14130.     0.0491552 
       14135.     0.0465632 
       14140.      0.044095 
       14145.     0.0419047 
       14150.     0.0399213 
       14155.     0.0379748 
       14160.     0.0361566 
       14165.     0.0345915 
       14170.     0.0328393 
       14175.     0.0313116 
       14180.     0.0299414 
       14185.     0.0285775 
       14190.     0.0271752 
       14195.     0.0259461 
       14200.     0.0245965 
       14205.     0.0235589 
       14210.     0.0225898 
       14215.     0.0215539 
       14220.     0.0206893 
       14225.     0.0197582 
       14230.     0.0189223 
       14235.     0.0179896 
       14240.     0.0173934 
       14245.     0.0166558 
       14250.     0.0158693 
       14255.     0.0152651 
       14260.     0.0145093 
       14265.     0.0140105 
       14270.     0.0133667 
       14275.     0.0129002 
       14280.     0.0124364 
       14285.     0.0118924 
       14290.     0.0113466 
       14295.     0.0109566 
       14300.     0.0104252 
       14305.     0.0101648 
       14310.     0.0097021 
       14315.     0.0093265 
       14320.       0.00895 
       14325.     0.0085743 
       14330.     0.0082339 
       14335.     0.0079399 
       14340.     0.0076899 
       14345.     0.0073201 
       14350.      0.006974 
       14355.     0.0069065 
       14360.      0.006597 
       14365.     0.0062651 
       14370.     0.0059567 
       14375.     0.0057616 
       14380.     0.0055744 
       14385.       0.00529 
       14390.     0.0050513 
       14395.     0.0047826 
       14400.     0.0047533 
       14405.     0.0045447 
       14410.     0.0042758 
       14415.     0.0041045 
       14420.     0.0039814 
       14425.     0.0037832 
       14430.     0.0035989 
       14435.     0.0034622 
       14440.     0.0035147 
       14445.     0.0031731 
       14450.     0.0030188 
       14455.     0.0029076 
       14460.     0.0028096 
       14465.     0.0027392 
       14470.     0.0026896 
       14475.     0.0026536 
       14480.     0.0022976 
       14485.     0.0022636 
       14490.     0.0021609 
       14495.     0.0021486 
       14500.       0.00201 
       14505.     0.0019948 
       14510.     0.0019438 
       14515.     0.0018505 
       14520.     0.0017911 
       14525.     0.0017593 
       14530.     0.0016522 
       14535.     0.0015414 
       14540.     0.0015646 
       14545.     0.0014191 
       14550.     0.0014288 
       14555.     0.0013589 
       14560.     0.0013305 
       14565.     0.0013528 
       14570.     0.0013806 
       14575.     0.0013251 
       14580.     0.0012338 
       14585.     0.0011647 
       14590.     0.0011324 
       14595.     0.0010919 
       14600.   9.940000E-4 
       14605.   9.166000E-4 
       14610.   8.179000E-4 
       14615.   7.830000E-4 
       14620.   6.977000E-4 
       14625.   7.037001E-4 
       14630.   6.785000E-4 
       14635.   6.407000E-4 
       14640.   6.873000E-4 
       14645.   7.248000E-4 
       14650.   4.797000E-4 
       14655.   4.728000E-4 
       14660.   4.809000E-4 
       14665.   4.232000E-4 
       14670.   4.424000E-4 
       14675.   4.092000E-4 
       14680.   3.367000E-4 
       14685.   2.790000E-4 
       14690.   2.577000E-4 
       14695.   1.701000E-4 
       14700.   2.552000E-4 
       14705.   2.526000E-4 
       14710.   2.008000E-4 
       14715.   3.449000E-4 
       14720.   1.858000E-4 
       14725.   1.336000E-4 
       14730.   9.640000E-5 
       14735.   1.220000E-4 
       14740.   8.150000E-5 
       14745.   1.260000E-4 
       14750.   9.660000E-5 
       14755.   1.892000E-4 
       14760.   1.372000E-4 
       14765.   1.196000E-4 
       14770.   1.946000E-4 
       14775.   6.010000E-5 
       14780.   1.902000E-4 
       14785.  -3.750000E-5 
       14790.   6.030000E-5 
       14795.   1.205000E-4 
       14800.   1.283000E-4 
       14805.   7.560000E-5 
       14810.   1.738000E-4 
       14815.   2.100000E-6 
       14820.   7.780000E-5 
       14825.   4.540000E-5 
       14830.   8.320000E-5 
       14835.   9.070000E-5 
       14840.  -1.815000E-4 
       14845.   1.159000E-4 
       14850.   9.880000E-5 
       14855.   6.090000E-5 
       14860.   7.630000E-5 
       14865.   9.930000E-5 
       14870.   1.071000E-4 
       14875.   2.217000E-4 
       14880.  -6.200000E-6 
       14885.   3.783600E-8 
       14890.   8.450000E-5 
       14895.   2.839000E-4 
       14900.   1.383000E-4 
       14905.   7.700000E-6 
       14910.   5.400000E-5 
       14915.   1.079000E-4 
       14920.   1.081000E-4 
       14925.   1.468000E-4 
       14930.   2.320000E-5 
       14935.  -1.703000E-4 
       14940.   6.210000E-5 
       14945.   1.009000E-4 
       14950.   7.800000E-6 
       14955.   1.167000E-4 
       14960.  -2.361800E-8 
       14965.  -9.359999E-5 
       14970.   9.716901E-8 
       14975.   5.480000E-5 
       14980.   7.900000E-6 
       14985.   1.489000E-4 
       14990.   1.570000E-5 
       14995.   7.900000E-6 
       15000.   5.470000E-5 
       15005.   4.680000E-5 
       15010.   1.530000E-5 
       15015.   1.342000E-4 
       15020.   4.730000E-5 
       15025.  -1.898000E-4 
       15030.   5.470000E-5 
       15035.   8.000000E-6 
       15040.   8.740000E-5 
       15045.  -1.273000E-4 
       15050.   3.070000E-5 
       15055.   8.000000E-6 
       15060.   4.790000E-5 
       15065.   4.000000E-5 
       15070.  -5.590000E-5 
       15075.   1.923000E-4 
       15080.   9.999999E-8 
       15085.   1.430000E-5 
       15090.   7.250000E-5 
       15095.   3.230000E-5 
       15100.   8.860001E-5 
       15105.   6.460000E-5 
       15110.  -8.100000E-6 
       15115.  -1.620000E-5 
       15120.  -8.100001E-5 
       15125.   1.137000E-4 
       15130.   5.430000E-5 
       15135.   1.058000E-4 
       15140.   9.780000E-5 
       15145.   7.350000E-5 
       15150.   7.350000E-5 
       15155.   3.270000E-5 
       15160.   8.190001E-5 
       15165.   1.650000E-5 
       15170.   8.709999E-5 
       15175.   1.446000E-4 
       15180.   1.640000E-5 
       15185.  -8.300000E-6 
       15190.  -9.900000E-5 
       15195.   3.531300E-8 
       15200.   4.960000E-5 
       15205.   4.570000E-5 
       15210.  -2.880000E-5 
       15215.  -5.820000E-5 
       15220.  -1.328000E-4 
       15225.   3.286000E-4 
       15230.   1.083000E-4 
       15235.   5.010000E-5 
       15240.   8.360000E-5 
       15245.   5.030000E-5 
       15250.   1.173000E-4 
       15255.  -2.160000E-5 
       15260.   1.295000E-4 
       15265.  -1.765000E-4 
       15270.  -3.360000E-5 
       15275.   5.900000E-5 
       15280.  -8.500000E-6 
       15285.  -3.370000E-5 
       15290.   1.354000E-4 
       15295.   7.630000E-5 
       15300.   8.490000E-5 
       15305.   5.100000E-5 
       15310.   7.660000E-5 
       15315.  -2.550000E-5 
       15320.  -8.290001E-5 
       15325.   1.710000E-5 
       15330.  -1.710000E-5 
       15335.   6.840000E-5 
       15340.  -2.999000E-4 
       15345.   1.802000E-4 
       15350.   1.031000E-4 
       15355.   5.170000E-5 
       15360.   1.569000E-4 
       15365.   6.910000E-5 
       15370.  -8.700000E-6 
       15375.   5.190000E-5 
       15380.  -6.930000E-5 
       15385.  -8.700000E-6 
       15390.  -8.700000E-6 
       15395.   3.480000E-5 
       15400.   1.045000E-4 
       15405.   6.200000E-5 
       15410.  -8.700000E-6 
       15415.   3.500000E-5 
       15420.   6.130000E-5 
       15425.   9.640000E-5 
       15430.  -4.380000E-5 
       15435.   9.710000E-5 
       15440.  -2.640000E-5 
       15445.   1.760000E-5 
       15450.   4.420000E-5 
       15455.   1.237000E-4 
       15460.   3.540000E-5 
       15465.   3.540000E-5 
       15470.   8.900000E-6 
       15475.  -1.780000E-5 
       15480.  -4.450000E-5 
       15485.  -4.486900E-9 
       15490.  -8.900000E-6 
       15495.  -1.780000E-5 
       15500.   1.790000E-5 
       15505.  -1.790000E-5 
       15510.  -2.690000E-5 
       15515.  -5.380000E-5 
       15520.   2.730000E-5 
       15525.   1.172000E-4 
       15530.   4.053000E-4 
       15535.   7.980000E-5 
       15540.   1.175000E-4 
       15545.   6.340000E-5 
       15550.   6.180000E-5 
       15555.  -9.458100E-8 
       15560.  -1.545000E-4 
       15565.  -2.001000E-4 
       15570.  -1.130000E-5 
       15575.  -1.140000E-5 
       15580.   4.570000E-5 
       15585.  -3.660000E-5 
       15590.   2.750000E-5 
       15595.   1.350000E-4 
       15600.  -5.510000E-5 
       15605.   9.189999E-5 
       15610.  -5.510000E-5 
       15615.   1.168000E-4 
       15620.   6.460000E-5 
       15625.   7.080000E-5 
       15630.   8.000001E-5 
       15635.   5.550000E-5 
       15640.  -1.390000E-4 
       15645.   8.370000E-5 
       15650.   7.440000E-5 
       15655.  -2.790000E-5 
       15660.   6.087800E-8 
       15665.   5.610000E-5 
       15670.   5.630000E-5 
       15675.   3.703000E-4 
       15680.  -6.570001E-5 
       15685.  -8.560900E-8 
       15690.  -1.316000E-4 
       15695.   8.020000E-5 
       15700.  -2.820000E-5 
       15705.   1.417000E-4 
       15710.   8.510000E-5 
       15715.   6.630000E-5 
       15720.   1.233000E-4 
       15725.   7.590000E-5 
       15730.   6.734800E-8 
       15735.   2.860000E-5 
       15740.   8.040000E-5 
       15745.   8.590000E-5 
       15750.  -5.700000E-6 
       15755.  -6.700000E-5 
       15760.  -7.650000E-5 
       15765.   1.091000E-4 
       15770.   6.720000E-5 
       15775.  -1.154000E-4 
       15780.  -9.599999E-6 
       15785.  -9.599999E-6 
       15790.   1.940000E-5 
       15795.   9.669999E-5 
       15800.  -2.910000E-5 
       15805.   9.700000E-5 
       15810.   4.870000E-5 
       15815.   1.388000E-4 
       15820.   8.770000E-5 
       15825.   2.930000E-5 
       15830.   6.090000E-5 
       15835.   4.890000E-5 
       15840.  -1.960000E-5 
       15845.   3.920000E-5 
       15850.   2.950000E-5 
       15855.   1.970000E-5 
       15860.   7.880000E-5 
       15865.   1.183000E-4 
       15870.   8.880000E-5 
       15875.   3.418200E-8 
       15880.   4.950000E-5 
       15885.  -9.800000E-6 
       15890.   8.050000E-5 
       15895.   2.990000E-5 
       15900.   2.289000E-4 
       15905.   2.092000E-4 
       15910.  -1.497000E-4 
       15915.   6.000000E-5 
       15920.   1.508000E-4 
       15925.   5.020000E-5 
       15930.   8.030000E-5 
       15935.   1.709000E-4 
       15940.   7.050000E-5 
       15945.   1.612000E-4 
       15950.  -4.030000E-5 
       15955.   2.030000E-5 
       15960.   8.100001E-5 
       15965.   1.951300E-8 
       15970.   1.020000E-5 
       15975.   1.020000E-5 
       15980.   2.137000E-4 
       15985.   3.464000E-4 
       15990.  -1.736000E-4 
       15995.   2.050000E-5 
       16000.   1.030000E-5 
