#  Table f450w_sys.tab  Mon 11:01:29 21-Aug-95
#      WAVELENGTH      THROUGHPUT
#       angstroms                
         3502.697     3.203104E-6
         3507.893     4.780419E-6
         3513.096     7.595742E-6
         3518.307     1.126892E-5
         3523.528     1.754394E-5
         3528.755     2.510008E-5
         3533.989     3.780999E-5
         3539.233     5.221341E-5
         3544.483     7.617030E-5
         3549.741     1.019195E-4
         3555.006     1.436243E-4
          3560.28     1.876290E-4
         3565.561     2.532227E-4
          3570.85     3.237242E-4
         3576.146     4.180474E-4
         3581.451     5.204575E-4
         3586.764     6.433731E-4
         3592.086     7.650768E-4
         3597.412     8.842372E-4
         3602.752     9.746325E-4
         3608.095     0.001037516
         3613.447     0.001100861
         3618.809     0.001164672
         3624.175     0.001228924
         3629.552     0.001293693
         3634.936     0.001358881
         3640.328       0.0014353
         3645.728     0.001693966
         3651.138     0.001965517
         3656.552     0.002260409
         3661.978     0.002614225
         3667.412     0.003005805
          3672.85     0.003426714
           3678.3     0.003884133
         3683.756     0.004388323
          3689.22     0.004918085
         3694.693     0.005500455
         3700.173     0.006107878
         3705.662     0.006738334
         3711.158     0.007392075
         3716.663      0.00803952
         3722.177     0.008715289
         3727.698     0.009379567
         3733.231      0.01004789
         3738.767      0.01072326
         3744.313      0.01136976
         3749.869      0.01200023
         3755.429       0.0126195
         3761.002      0.01323585
         3766.581      0.01383279
         3772.168      0.01441874
         3777.763      0.01502478
         3783.367      0.01562209
         3788.979      0.01623141
         3794.602      0.01684855
          3800.23      0.01747863
         3805.867      0.01814641
         3811.513      0.01879688
         3817.168      0.01947328
         3822.831      0.02021177
         3828.501      0.02095808
          3834.18      0.02172814
         3839.868      0.02249901
         3845.563      0.02330744
         3851.268      0.02412409
          3856.98      0.02497249
         3862.704      0.02583944
         3868.434      0.02667193
          3874.17      0.02750796
         3879.921      0.02832792
         3885.676      0.02913811
          3891.44      0.02992867
         3897.212      0.03069946
         3902.993      0.03143573
         3908.782      0.03213201
         3914.581      0.03277441
         3920.387      0.03340966
         3926.202      0.03400506
         3932.031      0.03456032
         3937.861      0.03505927
           3943.7      0.03558633
         3949.554      0.03601447
         3955.413      0.03648391
         3961.278       0.0368863
         3967.156      0.03729069
         3973.041      0.03769012
         3978.934      0.03808811
         3984.836      0.03850306
         3990.747      0.03887689
         3996.667      0.03931352
         4002.597      0.03971916
         4008.534      0.04001249
          4014.48      0.04031488
         4020.438      0.04066014
         4026.401       0.0409679
         4032.374      0.04128443
         4038.355      0.04165282
         4044.345      0.04205089
         4050.344      0.04233321
         4056.355      0.04274581
          4062.37      0.04304912
         4068.398      0.04340879
         4074.433      0.04375723
         4080.476      0.04402023
         4086.531      0.04435488
         4092.593      0.04462862
         4098.664      0.04487803
         4104.744      0.04509094
         4110.832      0.04530556
          4116.93      0.04552817
         4123.037      0.04563615
         4129.155      0.04575574
         4135.278       0.0458761
         4141.412      0.04594482
         4147.559      0.04599174
         4153.707      0.04601953
         4159.873      0.04598492
         4166.043      0.04598957
         4172.221      0.04598184
         4178.412      0.04591727
          4184.61      0.04586707
         4190.817      0.04584955
         4197.034      0.04582335
         4203.259      0.04577154
         4209.494      0.04589378
         4215.738      0.04596736
         4221.996      0.04603389
         4228.254      0.04617775
         4234.529      0.04626003
         4240.812      0.04641804
         4247.101       0.0465605
         4253.403      0.04676576
         4259.712      0.04695386
          4266.03      0.04723402
         4272.358      0.04745912
         4278.696      0.04775329
         4285.042      0.04802563
         4291.399      0.04835426
         4297.767      0.04869366
          4304.14      0.04903867
         4310.526      0.04935428
         4316.923      0.04970496
         4323.324      0.05003565
         4329.739      0.05033762
         4336.162      0.05066916
         4342.594      0.05097939
         4349.035      0.05131649
         4355.486      0.05158693
         4361.947       0.0518113
         4368.417      0.05199614
         4374.899       0.0521595
         4381.387      0.05221488
         4387.888      0.05231056
         4394.399      0.05231251
         4400.915      0.05230018
         4407.446      0.05224134
         4413.983      0.05216463
         4420.531      0.05207611
         4427.088      0.05189383
         4433.655      0.05173042
         4440.231      0.05151104
          4446.82      0.05135686
         4453.414      0.05111635
          4460.02      0.05092517
         4466.641      0.05066752
         4473.266      0.05050403
         4479.899      0.05034645
         4486.547       0.0502122
         4493.202      0.05008086
         4499.867      0.04995792
         4506.544      0.05014143
         4513.227      0.05043818
         4519.921      0.05081921
         4526.626      0.05113883
          4533.34      0.05152449
         4540.067      0.05187683
         4546.802      0.05244593
         4553.549      0.05297095
         4560.301      0.05350401
         4567.068      0.05412054
         4573.842      0.05474177
         4580.627      0.05543583
         4587.421      0.05608559
         4594.226      0.05681235
         4601.041      0.05754743
         4607.866      0.05826241
         4614.704      0.05897118
         4621.551      0.05965753
         4628.401      0.06034605
          4635.27      0.06102002
         4642.148       0.0615667
         4649.034      0.06205983
          4655.93      0.06262047
         4662.836      0.06309966
         4669.752      0.06341773
          4676.68      0.06367567
         4683.617      0.06385954
         4690.566      0.06407396
         4697.522      0.06409353
         4704.492      0.06415285
         4711.471      0.06409964
         4718.462       0.0639753
         4725.461      0.06380819
         4732.471      0.06367511
         4739.491      0.06350988
         4746.521      0.06336088
         4753.562      0.06316534
         4760.613      0.06295957
         4767.674        0.062772
         4774.747       0.0626678
         4781.829      0.06260895
         4788.925      0.06258738
         4796.031       0.0626021
         4803.143      0.06264412
         4810.267      0.06270099
         4817.405      0.06291533
         4824.551       0.0631023
         4831.708      0.06335066
         4838.875      0.06372318
         4846.052      0.06406181
         4853.241      0.06442071
         4860.442      0.06484347
         4867.652      0.06532117
          4874.87      0.06583738
         4882.104      0.06634729
         4889.345      0.06687212
         4896.601      0.06745732
         4903.864      0.06806079
         4911.138      0.06856582
         4918.423      0.06915157
         4925.719      0.06975704
         4933.025      0.07029463
         4940.345      0.07081459
         4947.671      0.07140471
          4955.01      0.07203352
         4962.362      0.07261432
         4969.726      0.07326567
         4977.098      0.07397503
         4984.478      0.07473782
         4991.875      0.07557353
         4999.279      0.07655668
         5006.695      0.07759247
         5014.121      0.07879432
         5021.559      0.08008616
         5029.008       0.0813674
         5036.467      0.08274485
         5043.941      0.08410012
         5051.426      0.08528118
         5058.913      0.08610079
          5066.42      0.08646306
         5073.938      0.08620639
         5081.464      0.08503248
         5089.002      0.08280805
         5096.551      0.07938001
          5104.11      0.07482494
         5111.682      0.06935351
         5119.264      0.06300952
          5126.86       0.0563088
         5134.462       0.0494754
         5142.079      0.04299153
         5149.709      0.03694783
         5157.351       0.0315173
         5165.001      0.02679344
         5172.659       0.0227251
         5180.335       0.0191931
          5188.02      0.01621645
         5195.715      0.01372272
         5203.422      0.01164109
         5211.141     0.009902108
          5218.87     0.008445033
         5226.615     0.007232445
         5234.367     0.006215668
         5242.129     0.005351003
         5249.908     0.004630267
         5257.695     0.004021041
         5265.497     0.003509475
         5273.308     0.002507452
         5281.129     0.002212112
         5288.963     0.001961824
         5296.809     0.001748163
         5304.666     0.001560173
         5312.537     0.001394817
         5320.415     0.001249387
         5328.307     0.001125637
         5336.213     0.001016244
         5344.131     9.189798E-4
         5352.059     8.326795E-4
         5359.995     7.560743E-4
         5367.948     6.899846E-4
         5375.911     6.301043E-4
         5383.885     5.760990E-4
         5391.872     5.275705E-4
         5399.869     4.841119E-4
         5407.879     4.463064E-4
         5415.901     4.119460E-4
         5423.938     3.807348E-4
         5431.986     3.523579E-4
         5440.038     3.264543E-4
          5448.11     3.034922E-4
         5456.194     2.824839E-4
         5464.288     2.632039E-4
         5472.393     2.455053E-4
         5480.511     2.292958E-4
          5488.64     2.146347E-4
         5496.782     2.012695E-4
