# CFHT12K  I-band instrumental transmission curve from M. Gladders  
#      WAVELENGTH      THROUGHPUT
#       angstroms         
      7000.00      0.00000
      7010.00   0.00215855
      7020.00   0.00431495
      7030.00   0.00646918
      7040.00   0.00862125
      7050.00    0.0107712
      7060.00    0.0129189
      7070.00    0.0150645
      7080.00    0.0172079
      7090.00    0.0193492
      7100.00    0.0214883
      7110.00    0.0400913
      7120.00    0.0586756
      7130.00    0.0772411
      7140.00    0.0957880
      7150.00     0.114316
      7160.00     0.132825
      7170.00     0.151316
      7180.00     0.169788
      7190.00     0.188241
      7200.00     0.206676
      7210.00     0.235331
      7220.00     0.263957
      7230.00     0.292554
      7240.00     0.321122
      7250.00     0.349661
      7260.00     0.378171
      7270.00     0.406651
      7280.00     0.435103
      7290.00     0.463526
      7300.00     0.491919
      7310.00     0.512045
      7320.00     0.532149
      7330.00     0.552234
      7340.00     0.572297
      7350.00     0.592340
      7360.00     0.612362
      7370.00     0.632363
      7380.00     0.652344
      7390.00     0.672304
      7400.00     0.692243
      7410.00     0.702907
      7420.00     0.713560
      7430.00     0.724201
      7440.00     0.734831
      7450.00     0.745450
      7460.00     0.756058
      7470.00     0.766654
      7480.00     0.777239
      7490.00     0.787813
      7500.00     0.798376
      7510.00     0.802789
      7520.00     0.807197
      7530.00     0.811600
      7540.00     0.815998
      7550.00     0.820392
      7560.00     0.824780
      7570.00     0.829164
      7580.00     0.833542
      7590.00     0.837916
      7600.00     0.842284
      7610.00     0.843594
      7620.00     0.844903
      7630.00     0.846210
      7640.00     0.847514
      7650.00     0.848818
      7660.00     0.850119
      7670.00     0.851418
      7680.00     0.852716
      7690.00     0.854012
      7700.00     0.855306
      7710.00     0.855296
      7720.00     0.855286
      7730.00     0.855276
      7740.00     0.855265
      7750.00     0.855254
      7760.00     0.855242
      7770.00     0.855230
      7780.00     0.855217
      7790.00     0.855204
      7800.00     0.855190
      7810.00     0.855176
      7820.00     0.855162
      7830.00     0.855147
      7840.00     0.855131
      7850.00     0.855116
      7860.00     0.855099
      7870.00     0.855082
      7880.00     0.855065
      7890.00     0.855048
      7900.00     0.855030
      7910.00     0.855011
      7920.00     0.854992
      7930.00     0.854972
      7940.00     0.854953
      7950.00     0.854932
      7960.00     0.854911
      7970.00     0.854890
      7980.00     0.854869
      7990.00     0.854846
      8000.00     0.854824
      8010.00     0.852320
      8020.00     0.849816
      8030.00     0.847312
      8040.00     0.844808
      8050.00     0.842304
      8060.00     0.839800
      8070.00     0.837296
      8080.00     0.834792
      8090.00     0.832289
      8100.00     0.829785
      8110.00     0.826454
      8120.00     0.823127
      8130.00     0.819806
      8140.00     0.816490
      8150.00     0.813179
      8160.00     0.809873
      8170.00     0.806572
      8180.00     0.803275
      8190.00     0.799984
      8200.00     0.796698
      8210.00     0.793417
      8220.00     0.790141
      8230.00     0.786870
      8240.00     0.783604
      8250.00     0.780343
      8260.00     0.777087
      8270.00     0.773836
      8280.00     0.770590
      8290.00     0.767349
      8300.00     0.764113
      8310.00     0.759327
      8320.00     0.754557
      8330.00     0.749801
      8340.00     0.745061
      8350.00     0.740336
      8360.00     0.735625
      8370.00     0.730930
      8380.00     0.726250
      8390.00     0.721584
      8400.00     0.716934
      8410.00     0.711547
      8420.00     0.706180
      8430.00     0.700832
      8440.00     0.695505
      8450.00     0.690198
      8460.00     0.684911
      8470.00     0.679643
      8480.00     0.674396
      8490.00     0.669169
      8500.00     0.663962
      8510.00     0.658048
      8520.00     0.652159
      8530.00     0.646295
      8540.00     0.640456
      8550.00     0.634642
      8560.00     0.628853
      8570.00     0.623089
      8580.00     0.617350
      8590.00     0.611636
      8600.00     0.605947
      8610.00     0.596071
      8620.00     0.586250
      8630.00     0.576483
      8640.00     0.566772
      8650.00     0.557116
      8660.00     0.547516
      8670.00     0.537970
      8680.00     0.528479
      8690.00     0.519043
      8700.00     0.509663
      8710.00     0.494921
      8720.00     0.480274
      8730.00     0.465723
      8740.00     0.451267
      8750.00     0.436905
      8760.00     0.422639
      8770.00     0.408468
      8780.00     0.394393
      8790.00     0.380412
      8800.00     0.366526
      8810.00     0.350128
      8820.00     0.333845
      8830.00     0.317677
      8840.00     0.301624
      8850.00     0.285686
      8860.00     0.269864
      8870.00     0.254157
      8880.00     0.238565
      8890.00     0.223088
      8900.00     0.207726
      8910.00     0.195614
      8920.00     0.183593
      8930.00     0.171661
      8940.00     0.159820
      8950.00     0.148069
      8960.00     0.136408
      8970.00     0.124837
      8980.00     0.113356
      8990.00     0.101965
      9000.00    0.0906650
      9010.00    0.0828018
      9020.00    0.0750447
      9030.00    0.0673937
      9040.00    0.0598488
      9050.00    0.0524099
      9060.00    0.0450772
      9070.00    0.0378505
      9080.00    0.0307299
      9090.00    0.0237154
      9100.00    0.0168070
      9110.00    0.0150069
      9120.00    0.0132334
      9130.00    0.0114864
      9140.00   0.00976591
      9150.00   0.00807196
      9160.00   0.00640452
      9170.00   0.00476361
      9180.00   0.00314922
      9190.00   0.00156135
      9200.00      0.00000
