# i pfuei filter from Pat Hall
#      WAVELENGTH      THROUGHPUT
#       angstroms              
7000.0 -0.000 
7010.0 -0.000 
7020.0 -0.000 
7030.0 -0.000 
7040.0 0.0000 
7050.0 0.0000 
7060.0 0.0000 
7070.0 0.0000 
7080.0 0.0000 
7090.0 0.0000 
7100.0 0.0001 
7110.0 0.0001 
7120.0 0.0002 
7130.0 0.0003 
7140.0 0.0003 
7150.0 0.0004 
7160.0 0.0005 
7170.0 0.0007 
7180.0 0.0009 
7190.0 0.0012 
7200.0 0.0014 
7210.0 0.0018 
7220.0 0.0023 
7230.0 0.0029 
7240.0 0.0036 
7250.0 0.0045 
7260.0 0.0057 
7270.0 0.0070 
7280.0 0.0087 
7290.0 0.0108 
7300.0 0.0135 
7310.0 0.0168 
7320.0 0.0207 
7330.0 0.0255 
7340.0 0.0314 
7350.0 0.0386 
7360.0 0.0472 
7370.0 0.0577 
7380.0 0.0701 
7390.0 0.0850 
7400.0 0.1024 
7410.0 0.1227 
7420.0 0.1462 
7430.0 0.1726 
7440.0 0.2025 
7450.0 0.2358 
7460.0 0.2712 
7470.0 0.3097 
7480.0 0.3510 
7490.0 0.3924 
7500.0 0.4356 
7510.0 0.4778 
7520.0 0.5204 
7530.0 0.5607 
7540.0 0.6001 
7550.0 0.6350 
7560.0 0.6685 
7570.0 0.6989 
7580.0 0.7250 
7590.0 0.7482 
7600.0 0.7698 
7610.0 0.7896 
7620.0 0.8045 
7630.0 0.8201 
7640.0 0.8339 
7650.0 0.8443 
7660.0 0.8536 
7670.0 0.8607 
7680.0 0.8674 
7690.0 0.8750 
7700.0 0.8800 
7710.0 0.8829 
7720.0 0.8870 
7730.0 0.8898 
7740.0 0.8931 
7750.0 0.8939 
7760.0 0.8970 
7770.0 0.8968 
7780.0 0.8988 
7790.0 0.9000 
7800.0 0.9008 
7810.0 0.9014 
7820.0 0.9024 
7830.0 0.9025 
7840.0 0.9024 
7850.0 0.9028 
7860.0 0.9020 
7870.0 0.9049 
7880.0 0.9058 
7890.0 0.9048 
7900.0 0.9051 
7910.0 0.9068 
7920.0 0.9066 
7930.0 0.9086 
7940.0 0.9082 
7950.0 0.9096 
7960.0 0.9112 
7970.0 0.9111 
7980.0 0.9110 
7990.0 0.9131 
8000.0 0.9134 
8010.0 0.9135 
8020.0 0.9158 
8030.0 0.9154 
8040.0 0.9159 
8050.0 0.9183 
8060.0 0.9184 
8070.0 0.9200 
8080.0 0.9182 
8090.0 0.9186 
8100.0 0.9207 
8110.0 0.9208 
8120.0 0.9175 
8130.0 0.9196 
8140.0 0.9207 
8150.0 0.9176 
8160.0 0.9180 
8170.0 0.9193 
8180.0 0.9178 
8190.0 0.9175 
8200.0 0.9175 
8210.0 0.9165 
8220.0 0.9161 
8230.0 0.9153 
8240.0 0.9135 
8250.0 0.9122 
8260.0 0.9118 
8270.0 0.9100 
8280.0 0.9109 
8290.0 0.9104 
8300.0 0.9074 
8310.0 0.9089 
8320.0 0.9064 
8330.0 0.9064 
8340.0 0.9024 
8350.0 0.9011 
8360.0 0.9013 
8370.0 0.8989 
8380.0 0.8957 
8390.0 0.8974 
8400.0 0.8947 
8410.0 0.8910 
8420.0 0.8905 
8430.0 0.8875 
8440.0 0.8867 
8450.0 0.8818 
8460.0 0.8791 
8470.0 0.8728 
8480.0 0.8702 
8490.0 0.8683 
8500.0 0.8672 
8510.0 0.8589 
8520.0 0.8539 
8530.0 0.8463 
8540.0 0.8454 
8550.0 0.8365 
8560.0 0.8319 
8570.0 0.8254 
8580.0 0.8156 
8590.0 0.8050 
8600.0 0.7959 
8610.0 0.8122 
8620.0 0.8038 
8630.0 0.7952 
8640.0 0.7863 
8650.0 0.7763 
8660.0 0.7652 
8670.0 0.7538 
8680.0 0.7414 
8690.0 0.7279 
8700.0 0.7143 
8710.0 0.6989 
8720.0 0.6841 
8730.0 0.6676 
8740.0 0.6501 
8750.0 0.6319 
8760.0 0.6122 
8770.0 0.5916 
8780.0 0.5710 
8790.0 0.5489 
8800.0 0.5264 
8810.0 0.5034 
8820.0 0.4802 
8830.0 0.4572 
8840.0 0.4333 
8850.0 0.4100 
8860.0 0.3871 
8870.0 0.3645 
8880.0 0.3423 
8890.0 0.3210 
8900.0 0.2993 
8910.0 0.2792 
8920.0 0.2594 
8930.0 0.2412 
8940.0 0.2229 
8950.0 0.2064 
8960.0 0.1895 
8970.0 0.1755 
8980.0 0.1611 
8990.0 0.1476 
9000.0 0.1355 
9010.0 0.1244 
9020.0 0.1143 
9030.0 0.1044 
9040.0 0.0952 
9050.0 0.0875 
9060.0 0.0800 
9070.0 0.0724 
9080.0 0.0670 
9090.0 0.0611 
9100.0 0.0556 
9110.0 0.0501 
9120.0 0.0465 
9130.0 0.0424 
9140.0 0.0384 
9150.0 0.0353 
9160.0 0.0323 
9170.0 0.0291 
9180.0 0.0272 
9190.0 0.0246 
9200.0 0.0226 
9210.0 0.0210 
9220.0 0.0192 
9230.0 0.0173 
9240.0 0.0155 
9250.0 0.0147 
9260.0 0.0135 
9270.0 0.0120 
9280.0 0.0119 
9290.0 0.0100 
9300.0 0.0096 
9310.0 0.0090 
9320.0 0.0083 
9330.0 0.0071 
9340.0 0.0076 
9350.0 0.0058 
9360.0 0.0060 
9370.0 0.0054 
9380.0 0.0049 
9390.0 0.0052 
9400.0 0.0044 
9410.0 0.0042 
9420.0 0.0038 
9430.0 0.0031 
9440.0 0.0032 
9450.0 0.0030 
9460.0 0.0034 
9470.0 0.0037 
9480.0 0.0036 
9490.0 0.0026 
9500.0 0.0015 
