#Transmission for IRAC band        3 
#Wavelength   Transmiss   
#----------   ---------   
   43940.    0.000072
   44070.    0.000097
   44200.    0.000103
   44330.    0.000204
   44460.    0.000169
   44590.    0.000126
   44720.    0.000129
   44840.    0.000173
   44970.    0.000189
   45100.    0.000143
   45230.    0.000172
   45360.    0.000173
   45490.    0.000210
   45620.    0.000242
   45750.    0.000319
   45880.    0.000335
   46010.    0.000310
   46140.    0.000311
   46270.    0.000222
   46390.    0.000271
   46520.    0.000337
   46650.    0.000263
   46780.    0.000242
   46910.    0.000217
   47040.    0.000180
   47170.    0.000026
   47300.    0.000161
   47430.    0.000159
   47560.    0.000091
   47690.    0.000253
   47820.    0.000303
   47940.    0.000281
   48070.    0.000208
   48200.    0.000212
   48330.    0.000153
   48460.    0.000225
   48590.    0.000362
   48720.    0.000187
   48850.    0.000246
   48980.    0.000865
   49110.    0.000137
   49240.    0.001601
   49360.    0.006612
   49490.    0.019280
   49620.    0.046840
   49750.    0.083780
   49880.    0.122200
   50010.    0.158400
   50140.    0.191000
   50270.    0.216500
   50400.    0.228100
   50530.    0.224700
   50660.    0.220000
   50790.    0.226600
   50910.    0.244400
   51040.    0.263300
   51170.    0.274400
   51300.    0.277100
   51430.    0.274200
   51560.    0.269300
   51690.    0.264500
   51820.    0.260900
   51950.    0.260000
   52080.    0.264300
   52210.    0.272800
   52340.    0.281000
   52460.    0.284800
   52590.    0.282200
   52720.    0.273700
   52850.    0.261900
   52980.    0.252200
   53110.    0.249300
   53240.    0.254800
   53370.    0.265500
   53500.    0.275200
   53630.    0.279300
   53760.    0.280200
   53890.    0.279900
   54010.    0.278400
   54140.    0.276000
   54270.    0.272900
   54400.    0.269600
   54530.    0.267100
   54660.    0.265100
   54790.    0.263300
   54920.    0.261700
   55050.    0.259900
   55180.    0.257300
   55310.    0.256500
   55440.    0.259000
   55560.    0.264900
   55690.    0.269900
   55820.    0.271800
   55950.    0.269100
   56080.    0.265900
   56210.    0.262700
   56340.    0.261600
   56470.    0.262400
   56600.    0.264700
   56730.    0.268000
   56860.    0.269000
   56980.    0.267400
   57110.    0.264800
   57240.    0.262800
   57370.    0.265000
   57500.    0.269600
   57630.    0.272000
   57760.    0.269100
   57890.    0.263900
   58020.    0.260100
   58150.    0.260100
   58280.    0.262600
   58410.    0.263900
   58530.    0.264400
   58660.    0.264400
   58790.    0.265500
   58920.    0.264700
   59050.    0.263800
   59180.    0.261400
   59310.    0.258600
   59440.    0.256700
   59570.    0.256700
   59700.    0.259900
   59830.    0.261300
   59960.    0.261300
   60080.    0.257500
   60210.    0.253200
   60340.    0.249500
   60470.    0.249800
   60600.    0.249200
   60730.    0.250700
   60860.    0.248500
   60990.    0.246000
   61120.    0.242000
   61250.    0.236800
   61380.    0.232700
   61510.    0.230600
   61630.    0.229900
   61760.    0.230000
   61890.    0.231900
   62020.    0.232900
   62150.    0.231800
   62280.    0.227100
   62410.    0.219400
   62540.    0.211500
   62670.    0.206600
   62800.    0.206300
   62930.    0.209900
   63050.    0.214800
   63180.    0.217400
   63310.    0.217200
   63440.    0.215700
   63570.    0.211800
   63700.    0.205400
   63830.    0.190100
   63960.    0.168900
   64090.    0.145400
   64220.    0.124000
   64350.    0.103200
   64480.    0.079530
   64600.    0.053120
   64730.    0.029510
   64860.    0.014170
   64990.    0.005763
   65120.    0.002472
   65250.    0.001163
   65380.    0.000589
   65510.    0.000345
   65640.    0.000166
   65770.    0.000146
   65900.    0.000200
   66030.    0.000154
   66150.    0.000128
   66280.    0.000191
   66410.    0.000145
   66540.    0.000102
   66670.    0.000128
   66800.    0.000120
   66930.    0.000031
   67060.    0.000040
   67190.    0.000062
   67320.    0.000125
   67450.    0.000068
   67580.    0.000075
   67700.    0.000183
   67830.    0.000109
   67960.    0.000146
   68090.    0.000179
   68220.    0.000073
   68350.    0.000113
   68480.    0.000116
   68610.    0.000097
   68740.    0.000081
   68870.    0.000099
   69000.    0.000138
   69120.    0.000113
   69250.    0.000093
   69380.    0.000131
   69510.    0.000149
   69640.    0.000158
   69770.    0.000143