#Transmission for IRAC band        4 
#Wavelength   Transmiss
#----------   ---------
   56120.    0.000352
   56360.    0.000152
   56590.    0.000141
   56830.    0.000169
   57060.    0.000147
   57290.    0.000243
   57530.    0.000179
   57760.    0.000101
   58000.    0.000187
   58230.    0.000210
   58470.    0.000197
   58700.    0.000354
   58940.    0.000265
   59170.    0.000248
   59400.    0.000383
   59640.    0.000335
   59870.    0.000071
   60110.    0.000271
   60340.    0.000590
   60580.    0.000262
   60810.    0.000343
   61040.    0.000515
   61280.    0.000303
   61510.    0.000240
   61750.    0.000271
   61980.    0.000350
   62220.    0.000243
   62450.    0.000347
   62690.    0.000495
   62920.    0.000755
   63150.    0.001001
   63390.    0.002506
   63620.    0.011680
   63860.    0.045440
   64090.    0.101000
   64330.    0.162800
   64560.    0.226300
   64800.    0.250100
   65030.    0.271600
   65260.    0.295600
   65500.    0.310800
   65730.    0.315200
   65970.    0.319200
   66200.    0.318500
   66440.    0.316000
   66670.    0.312900
   66900.    0.298500
   67140.    0.301300
   67370.    0.319900
   67610.    0.323800
   67840.    0.327500
   68080.    0.336600
   68310.    0.342800
   68550.    0.344100
   68780.    0.344500
   69010.    0.344600
   69250.    0.341300
   69480.    0.339200
   69720.    0.344400
   69950.    0.343000
   70190.    0.331900
   70420.    0.329400
   70660.    0.334900
   70890.    0.332300
   71120.    0.330200
   71360.    0.337000
   71590.    0.341900
   71830.    0.334100
   72060.    0.330800
   72300.    0.337500
   72530.    0.349100
   72760.    0.353400
   73000.    0.350000
   73230.    0.346400
   73470.    0.346700
   73700.    0.352000
   73940.    0.357700
   74170.    0.360200
   74410.    0.355800
   74640.    0.348400
   74870.    0.349100
   75110.    0.365000
   75340.    0.379900
   75580.    0.386500
   75810.    0.390300
   76050.    0.395000
   76280.    0.392900
   76520.    0.385200
   76750.    0.383700
   76980.    0.392700
   77220.    0.398900
   77450.    0.395100
   77690.    0.390100
   77920.    0.390200
   78160.    0.393200
   78390.    0.393800
   78620.    0.397700
   78860.    0.406700
   79090.    0.412800
   79330.    0.410800
   79560.    0.403400
   79800.    0.399500
   80030.    0.402000
   80270.    0.407900
   80500.    0.414300
   80730.    0.414900
   80970.    0.414800
   81200.    0.418600
   81440.    0.423400
   81670.    0.422200
   81910.    0.417100
   82140.    0.414000
   82380.    0.418600
   82610.    0.424600
   82840.    0.426400
   83080.    0.423600
   83310.    0.424600
   83550.    0.426400
   83780.    0.425800
   84020.    0.417800
   84250.    0.413700
   84480.    0.416500
   84720.    0.425000
   84950.    0.427700
   85190.    0.425200
   85420.    0.419700
   85660.    0.419600
   85890.    0.421900
   86130.    0.421500
   86360.    0.421400
   86590.    0.420500
   86830.    0.416500
   87060.    0.405400
   87300.    0.392500
   87530.    0.386500
   87770.    0.388200
   88000.    0.397400
   88240.    0.405100
   88470.    0.406200
   88700.    0.401100
   88940.    0.396400
   89170.    0.393200
   89410.    0.391300
   89640.    0.388200
   89880.    0.386700
   90110.    0.384900
   90340.    0.382400
   90580.    0.376500
   90810.    0.370500
   91050.    0.366700
   91280.    0.364200
   91520.    0.361100
   91750.    0.355100
   91990.    0.343300
   92220.    0.325500
   92450.    0.304100
   92690.    0.279000
   92920.    0.251800
   93160.    0.227900
   93390.    0.206100
   93630.    0.184000
   93860.    0.157300
   94100.    0.129000
   94330.    0.103500
   94560.    0.080700
   94800.    0.058440
   95030.    0.039220
   95270.    0.023840
   95500.    0.014400
   95740.    0.009474
   95970.    0.006409
   96200.    0.004439
   96440.    0.003190
   96670.    0.002409
   96910.    0.001130
   97140.    0.001742
   97380.    0.001633
   97610.    0.000983
   97850.    0.000778
   98080.    0.000577
   98310.    0.000738
   98550.    0.000468
   98780.    0.000548
   99020.    0.000540
   99250.    0.000570
   99490.    0.000723
   99720.    0.000294
   99960.    0.000401
  100200.    0.000297
  100400.    0.000537
  100700.    0.000830
  100900.    0.000794
  101100.    0.000253
  101400.    0.000090
  101600.    0.000224
  101800.    0.000612
  102100.    0.000669
  102300.    0.000867
  102500.    0.000899
  102800.    0.000675
  103000.    0.000359
