#Transmission for IRAC band        1 
#Wavelength   Transmiss 
#----------   --------- 
   28850.    0.000431  
   28920.    0.000668  
   28980.    0.000546  
   29050.    0.000401  
   29120.    0.000378  
   29190.    0.000288  
   29250.    0.000567  
   29320.    0.001140  
   29390.    0.001161  
   29460.    0.000589  
   29520.    0.001088  
   29590.    0.000848  
   29660.    0.001153  
   29730.    0.000509  
   29790.    0.001334  
   29860.    0.001132  
   29930.    0.001540  
   30000.    0.000905  
   30060.    0.000194  
   30130.    0.000719  
   30200.    0.000697  
   30270.    0.000671  
   30330.    0.000860  
   30400.    0.000453  
   30470.    0.000735  
   30540.    0.000416  
   30600.    0.000563  
   30670.    0.000855  
   30740.    0.000568  
   30810.    0.000468  
   30870.    0.000241  
   30940.    0.000532  
   31010.    0.000497  
   31080.    0.001367  
   31140.    0.002160  
   31210.    0.003529  
   31280.    0.005852  
   31350.    0.008984  
   31410.    0.016030  
   31480.    0.026890  
   31550.    0.049270  
   31620.    0.088750  
   31680.    0.154800  
   31750.    0.248700  
   31820.    0.354900  
   31890.    0.446900  
   31950.    0.507300  
   32020.    0.530100  
   32090.    0.529600  
   32160.    0.515500  
   32220.    0.501600  
   32290.    0.490600  
   32360.    0.487900  
   32430.    0.492400  
   32490.    0.505800  
   32560.    0.522700  
   32630.    0.541700  
   32700.    0.558800  
   32760.    0.574700  
   32830.    0.583800  
   32900.    0.586000  
   32970.    0.585700  
   33030.    0.581500  
   33100.    0.576600  
   33170.    0.572600  
   33240.    0.568200  
   33300.    0.567300  
   33370.    0.569600  
   33440.    0.569800  
   33510.    0.570700  
   33570.    0.568200  
   33640.    0.565800  
   33710.    0.560900  
   33780.    0.561800  
   33840.    0.561700  
   33910.    0.570200  
   33980.    0.580800  
   34050.    0.592600  
   34110.    0.602500  
   34180.    0.606700  
   34250.    0.612300  
   34320.    0.605600  
   34380.    0.600500  
   34450.    0.590400  
   34520.    0.582500  
   34590.    0.576900  
   34650.    0.577100  
   34720.    0.577700  
   34790.    0.585300  
   34860.    0.596000  
   34920.    0.606500  
   34990.    0.618300  
   35060.    0.625600  
   35130.    0.635200  
   35190.    0.640700  
   35260.    0.642700  
   35330.    0.645200  
   35400.    0.639400  
   35460.    0.636400  
   35530.    0.634100  
   35600.    0.629500  
   35670.    0.628600  
   35730.    0.623700  
   35800.    0.624300  
   35870.    0.625400  
   35940.    0.629600  
   36000.    0.631500  
   36070.    0.631300  
   36140.    0.634000  
   36210.    0.632600  
   36270.    0.632100  
   36340.    0.626400  
   36410.    0.621800  
   36480.    0.615200  
   36540.    0.609100  
   36610.    0.604200  
   36680.    0.601800  
   36750.    0.602900  
   36810.    0.604500  
   36880.    0.608400  
   36950.    0.616400  
   37020.    0.622700  
   37080.    0.630500  
   37150.    0.639000  
   37220.    0.641400  
   37290.    0.647000  
   37350.    0.649100  
   37420.    0.651100  
   37490.    0.650300  
   37560.    0.648800  
   37620.    0.644000  
   37690.    0.641400  
   37760.    0.636900  
   37830.    0.633200  
   37890.    0.630700  
   37960.    0.629700  
   38030.    0.627700  
   38100.    0.626100  
   38160.    0.624100  
   38230.    0.619900  
   38300.    0.615500  
   38370.    0.608800  
   38430.    0.600600  
   38500.    0.592600  
   38570.    0.586600  
   38640.    0.584100  
   38700.    0.589000  
   38770.    0.596200  
   38840.    0.604600  
   38910.    0.613000  
   38970.    0.609600  
   39040.    0.588000  
   39110.    0.535400  
   39180.    0.447500  
   39240.    0.335600  
   39310.    0.225900  
   39380.    0.138000  
   39450.    0.079160  
   39510.    0.044340  
   39580.    0.024760  
   39650.    0.014050  
   39720.    0.008189  
   39780.    0.004826  
   39850.    0.002924  
   39920.    0.002135  
   39990.    0.001236  
   40050.    0.000902  
   40120.    0.000544  
   40190.    0.000650  
   40260.    0.000581  
   40320.    0.000701  
   40390.    0.000594  
   40460.    0.000614  
   40530.    0.000640  
   40590.    0.000687  
   40660.    0.000594  
   40730.    0.000579  
   40800.    0.000330  
   40860.    0.000316  
   40930.    0.000323  
   41000.    0.000263  
   41070.    0.000179  
   41130.    0.000377  
   41200.    0.000374  
   41270.    0.000252  
   41340.    0.000244  
   41400.    0.000478  
   41470.    0.000363  
   41540.    0.000312  
   41610.    0.000173  
   41670.    0.000280  
   41740.    0.000389  
   41810.    0.000556  
   41880.    0.000564  
   41940.    0.000458  
   42010.    0.000319  
   42080.    0.000292  
   42150.    0.000250  
   42210.    0.000223  
   42280.    0.000267  
   42350.    0.000336  
