# FORS Gunn r filter from the fors website  
#      WAVELENGTH      THROUGHPUT
#       angstroms         
3300.000 6.5223193e-03 
3400.000 2.6888235e-03 
3500.000 5.8479605e-03 
3600.000 8.5337818e-04 
3700.000 2.8597796e-04 
3800.000 4.1719569e-03 
3900.000 3.9993334e-04 
4000.000 3.0247856e-04 
4100.000 6.3704835e-04 
4200.000 1.5610933e-04 
4300.000 9.6161319e-05 
4400.000 6.4157450e-05 
4500.000 4.5402704e-05 
4600.000 1.6036961e-04 
4700.000 5.0033064e-07 
4800.000 5.9187583e-05 
4900.000 1.5935509e-05 
5000.000 4.9524906e-06 
5100.000 1.0879130e-05 
5200.000 3.9160677e-06 
5300.000 7.8612973e-05 
5400.000 1.2976656e-05 
5500.000 1.4206787e-05 
5600.000 1.8672518e-05 
5700.000 2.2163235e-05 
5800.000 5.3255110e-05 
5900.000 2.8405229e-04 
6000.000 6.8800036e-02 
6100.000 4.5834000e-01 
6200.000 7.1404876e-01 
6300.000 8.1229161e-01 
6400.000 9.6e-01 
6500.000 9.6381143e-01 
6600.000 9.4464056e-01 
6700.000 8.7669595e-01 
6800.000 7.1937051e-01 
6900.000 5.8585929e-01 
7000.000 2.9467260e-01 
7100.000 7.3344756e-02 
7200.000 2.5021991e-02 
7300.000 1.2299254e-02 
7400.000 1.1446111e-02 
7500.000 8.4094235e-03 
7600.000 3.1061927e-03 
7700.000 1.4991352e-03 
7800.000 9.9150108e-04 
7900.000 9.1905626e-04 
8000.000 1.3680316e-03 
8100.000 1.8540024e-03 
8200.000 1.2092762e-03 
8300.000 5.3752970e-04 
8400.000 3.2826026e-04 
8500.000 4.5217835e-04 
8600.000 5.9807666e-04 
8700.000 1.9058064e-03 
8800.000 3.3230351e-03 
8900.000 1.0785887e-03 
9000.000 3.5303199e-04 
9100.000 2.7490631e-04 
9200.000 1.9409951e-04 
9300.000 2.4425289e-04 
9400.000 2.7155584e-04 
9500.000 5.6479464e-04 
9600.000 1.7989644e-03 
9700.000 1.7244093e-02 
9800.000 9.6560539e-03 
9900.000 1.8121655e-03 
10000.000 1.0894566e-03 
10100.000 7.5422125e-04 
10200.000 8.0079951e-04 
10300.000 8.9763196e-04 
10400.000 1.5096299e-03 
10500.000 2.6670152e-03 
10600.000 7.1348503e-03 
10700.000 2.0044812e-02 
10800.000 1.9679973e-02 
10900.000 1.0009626e-02 
11000.000 5.7782945e-03 
11100.000 4.8912379e-03 
11200.000 3.8416913e-03 
11300.000 4.1722020e-03 
11400.000 5.2201476e-03 
11500.000 6.9968239e-03 
11600.000 1.3020466e-02 
11700.000 2.7205568e-02 
11800.000 3.9026467e-02 
11900.000 1.2182804e-01 
12000.000 1.9183541e-01 
