# LRIS RG850 filter shifted by 700A and * LRIS CCD QE.  Set == 0 at 10500A due to lack of data there 
#      WAVELENGTH      THROUGHPUT
#       angstroms                
7337.59     0.000 
7338.85     0.000 
7340.12     0.000 
7341.38     0.000 
7342.64     0.000 
7343.90     0.000 
7345.17     0.000 
7346.43     0.000 
7347.69     0.000 
7348.95     0.000 
7350.21     0.000 
7351.48     0.000 
7352.74     0.001 
7354.00     0.000 
7355.26     0.000 
7356.52     0.001 
7357.79     0.001 
7359.05     0.001 
7360.31     0.000 
7361.57     0.001 
7362.83     0.001 
7364.10     0.001 
7365.36     0.001 
7366.62     0.001 
7367.88     0.001 
7369.15     0.001 
7370.41     0.001 
7371.67     0.001 
7372.93     0.001 
7374.19     0.001 
7375.46     0.001 
7376.72     0.001 
7377.98     0.001 
7379.24     0.001 
7380.50     0.001 
7381.77     0.001 
7383.03     0.001 
7384.29     0.001 
7385.55     0.001 
7386.81     0.001 
7388.08     0.001 
7389.34     0.001 
7390.60     0.001 
7391.86     0.001 
7393.12     0.001 
7394.39     0.001 
7395.65     0.001 
7396.91     0.001 
7398.17     0.001 
7399.44     0.001 
7400.70     0.001 
7401.96     0.001 
7403.22     0.001 
7404.48     0.001 
7405.75     0.001 
7407.01     0.001 
7408.27     0.001 
7409.53     0.001 
7410.79     0.001 
7412.06     0.001 
7413.32     0.001 
7414.58     0.001 
7415.84     0.001 
7417.10     0.001 
7418.37     0.001 
7419.63     0.001 
7420.89     0.001 
7422.15     0.001 
7423.42     0.001 
7424.68     0.001 
7425.94     0.001 
7427.20     0.001 
7428.46     0.001 
7429.73     0.001 
7430.99     0.001 
7432.25     0.001 
7433.51     0.001 
7434.77     0.001 
7436.04     0.001 
7437.30     0.001 
7438.56     0.001 
7439.82     0.001 
7441.08     0.001 
7442.35     0.001 
7443.61     0.001 
7444.87     0.001 
7446.13     0.001 
7447.40     0.001 
7448.66     0.001 
7449.92     0.001 
7451.18     0.001 
7452.44     0.001 
7453.71     0.001 
7454.97     0.001 
7456.23     0.001 
7457.49     0.001 
7458.75     0.001 
7460.02     0.001 
7461.28     0.001 
7462.54     0.001 
7463.80     0.001 
7465.06     0.001 
7466.33     0.001 
7467.59     0.001 
7468.85     0.001 
7470.11     0.001 
7471.38     0.001 
7472.64     0.001 
7473.90     0.001 
7475.16     0.001 
7476.42     0.001 
7477.69     0.001 
7478.95     0.001 
7480.21     0.001 
7481.47     0.001 
7482.73     0.001 
7484.00     0.001 
7485.26     0.001 
7486.52     0.001 
7487.78     0.002 
7489.04     0.002 
7490.31     0.002 
7491.57     0.002 
7492.83     0.002 
7494.09     0.002 
7495.36     0.002 
7496.62     0.002 
7497.88     0.002 
7499.14     0.002 
7500.40     0.002 
7501.67     0.002 
7502.93     0.002 
7504.19     0.002 
7505.45     0.002 
7506.71     0.002 
7507.98     0.002 
7509.24     0.002 
7510.50     0.002 
7511.76     0.002 
7513.02     0.002 
7514.29     0.003 
7515.55     0.003 
7516.81     0.003 
7518.07     0.003 
7519.33     0.003 
7520.60     0.003 
7521.86     0.003 
7523.12     0.003 
7524.38     0.003 
7525.65     0.003 
7526.91     0.003 
7528.17     0.003 
7529.43     0.004 
7530.69     0.004 
7531.96     0.004 
7533.22     0.004 
7534.48     0.004 
7535.74     0.004 
7537.00     0.004 
7538.27     0.004 
7539.53     0.005 
7540.79     0.005 
7542.05     0.005 
7543.31     0.005 
7544.58     0.005 
7545.84     0.005 
7547.10     0.005 
7548.36     0.006 
7549.63     0.006 
7550.89     0.006 
7552.15     0.006 
7553.41     0.006 
7554.67     0.007 
7555.94     0.007 
7557.20     0.007 
7558.46     0.007 
7559.72     0.008 
7560.98     0.008 
7562.25     0.008 
7563.51     0.008 
7564.77     0.009 
7566.03     0.009 
7567.29     0.009 
7568.56     0.009 
7569.82     0.010 
7571.08     0.010 
7572.34     0.010 
7573.61     0.011 
7574.87     0.011 
7576.13     0.011 
7577.39     0.012 
7578.65     0.012 
7579.92     0.013 
7581.18     0.013 
7582.44     0.013 
7583.70     0.014 
7584.96     0.014 
7586.23     0.015 
7587.49     0.015 
7588.75     0.016 
7590.01     0.016 
7591.27     0.017 
7592.54     0.017 
7593.80     0.018 
7595.06     0.018 
7596.32     0.019 
7597.59     0.019 
7598.85     0.020 
7600.11     0.021 
7601.37     0.021 
7602.63     0.022 
7603.90     0.022 
7605.16     0.023 
7606.42     0.024 
7607.68     0.025 
7608.94     0.025 
7610.21     0.026 
7611.47     0.027 
7612.73     0.028 
7613.99     0.028 
7615.25     0.029 
7616.52     0.030 
7617.78     0.031 
7619.04     0.031 
7620.30     0.033 
7621.57     0.033 
7622.83     0.034 
7624.09     0.035 
7625.35     0.036 
7626.61     0.037 
7627.88     0.038 
7629.14     0.039 
7630.40     0.040 
7631.66     0.041 
7632.92     0.042 
7634.19     0.043 
7635.45     0.044 
7636.71     0.046 
7637.97     0.047 
7639.23     0.048 
7640.50     0.049 
7641.76     0.050 
7643.02     0.052 
7644.28     0.053 
7645.54     0.054 
7646.81     0.055 
7648.07     0.057 
7649.33     0.058 
7650.59     0.059 
7651.86     0.061 
7653.12     0.062 
7654.38     0.063 
7655.64     0.065 
7656.90     0.066 
7658.17     0.068 
7659.43     0.069 
7660.69     0.071 
7661.95     0.072 
7663.21     0.074 
7664.48     0.075 
7665.74     0.077 
7667.00     0.078 
7668.26     0.080 
7669.52     0.081 
7670.79     0.083 
7672.05     0.085 
7673.31     0.086 
7674.57     0.088 
7675.84     0.089 
7677.10     0.091 
7678.36     0.093 
7679.62     0.095 
7680.88     0.097 
7682.15     0.098 
7683.41     0.100 
7684.67     0.102 
7685.93     0.104 
7687.19     0.106 
7688.46     0.108 
7689.72     0.109 
7690.98     0.111 
7692.24     0.113 
7693.50     0.115 
7694.77     0.117 
7696.03     0.119 
7697.29     0.121 
7698.55     0.123 
7699.82     0.125 
7701.08     0.127 
7702.34     0.129 
7703.60     0.130 
7704.86     0.133 
7706.13     0.135 
7707.39     0.137 
7708.65     0.139 
7709.91     0.141 
7711.17     0.143 
7712.44     0.145 
7713.70     0.147 
7714.96     0.149 
7716.22     0.151 
7717.48     0.153 
7718.75     0.155 
7720.01     0.157 
7721.27     0.159 
7722.53     0.162 
7723.80     0.164 
7725.06     0.166 
7726.32     0.168 
7727.58     0.170 
7728.84     0.172 
7730.11     0.174 
7731.37     0.176 
7732.63     0.178 
7733.89     0.180 
7735.15     0.183 
7736.42     0.185 
7737.68     0.187 
7738.94     0.189 
7740.20     0.191 
7741.46     0.193 
7742.73     0.195 
7743.99     0.197 
7745.25     0.199 
7746.51     0.202 
7747.78     0.204 
7749.04     0.206 
7750.30     0.208 
7751.56     0.210 
7752.82     0.212 
7754.09     0.214 
7755.35     0.216 
7756.61     0.218 
7757.87     0.221 
7759.13     0.223 
7760.40     0.225 
7761.66     0.227 
7762.92     0.228 
7764.18     0.230 
7765.44     0.233 
7766.71     0.234 
7767.97     0.236 
7769.23     0.239 
7770.49     0.241 
7771.75     0.243 
7773.02     0.245 
7774.28     0.247 
7775.54     0.249 
7776.80     0.251 
7778.07     0.253 
7779.33     0.255 
7780.59     0.257 
7781.85     0.259 
7783.11     0.261 
7784.38     0.263 
7785.64     0.265 
7786.90     0.267 
7788.16     0.269 
7789.42     0.270 
7790.69     0.273 
7791.95     0.275 
7793.21     0.276 
7794.47     0.278 
7795.73     0.280 
7797.00     0.282 
7798.26     0.284 
7799.52     0.286 
7800.78     0.287 
7802.05     0.289 
7803.31     0.291 
7804.57     0.293 
7805.83     0.295 
7807.09     0.297 
7808.36     0.299 
7809.62     0.301 
7810.88     0.302 
7812.14     0.304 
7813.40     0.306 
7814.67     0.307 
7815.93     0.309 
7817.19     0.311 
7818.45     0.313 
7819.71     0.314 
7820.98     0.316 
7822.24     0.318 
7823.50     0.319 
7824.76     0.321 
7826.03     0.323 
7827.29     0.324 
7828.55     0.326 
7829.81     0.328 
7831.07     0.329 
7832.34     0.331 
7833.60     0.332 
7834.86     0.334 
7836.12     0.335 
7837.38     0.337 
7838.65     0.339 
7839.91     0.340 
7841.17     0.342 
7842.43     0.344 
7843.69     0.345 
7844.96     0.346 
7846.22     0.348 
7847.48     0.349 
7848.74     0.351 
7850.01     0.353 
7851.27     0.354 
7852.53     0.355 
7853.79     0.357 
7855.05     0.358 
7856.32     0.360 
7857.58     0.361 
7858.84     0.362 
7860.10     0.363 
7861.36     0.365 
7862.63     0.366 
7863.89     0.368 
7865.15     0.369 
7866.41     0.370 
7867.67     0.371 
7868.94     0.373 
7870.20     0.374 
7871.46     0.375 
7872.72     0.377 
7873.99     0.378 
7875.25     0.379 
7876.51     0.381 
7877.77     0.382 
7879.03     0.383 
7880.30     0.384 
7881.56     0.385 
7882.82     0.386 
7884.08     0.388 
7885.34     0.389 
7886.61     0.390 
7887.87     0.391 
7889.13     0.392 
7890.39     0.393 
7891.65     0.395 
7892.92     0.396 
7894.18     0.397 
7895.44     0.398 
7896.70     0.399 
7897.96     0.400 
7899.23     0.401 
7900.49     0.402 
7901.75     0.403 
7903.01     0.404 
7904.28     0.405 
7905.54     0.406 
7906.80     0.407 
7908.06     0.408 
7909.32     0.409 
7910.59     0.410 
7911.85     0.411 
7913.11     0.412 
7914.37     0.413 
7915.63     0.414 
7916.90     0.415 
7918.16     0.415 
7919.42     0.416 
7920.68     0.418 
7921.94     0.418 
7923.21     0.419 
7924.47     0.420 
7925.73     0.421 
7926.99     0.422 
7928.26     0.422 
7929.52     0.423 
7930.78     0.424 
7932.04     0.425 
7933.30     0.426 
7934.57     0.427 
7935.83     0.428 
7937.09     0.429 
7938.35     0.429 
7939.61     0.430 
7940.88     0.431 
7942.14     0.431 
7943.40     0.432 
7944.66     0.433 
7945.92     0.433 
7947.19     0.435 
7948.45     0.435 
7949.71     0.436 
7950.97     0.437 
7952.24     0.437 
7953.50     0.438 
7954.76     0.439 
7956.02     0.439 
7957.28     0.440 
7958.55     0.441 
7959.81     0.442 
7961.07     0.442 
7962.33     0.443 
7963.59     0.443 
7964.86     0.444 
7966.12     0.444 
7967.38     0.445 
7968.64     0.446 
7969.90     0.447 
7971.17     0.447 
7972.43     0.448 
7973.69     0.448 
7974.95     0.449 
7976.22     0.450 
7977.48     0.450 
7978.74     0.451 
7980.00     0.451 
7981.26     0.452 
7982.53     0.452 
7983.79     0.453 
7985.05     0.453 
7986.31     0.454 
7987.57     0.455 
7988.84     0.455 
7990.10     0.455 
7991.36     0.456 
7992.62     0.457 
7993.88     0.457 
7995.15     0.457 
7996.41     0.458 
7997.67     0.458 
7998.93     0.459 
8000.20     0.459 
8001.46     0.460 
8002.72     0.461 
8003.98     0.461 
8005.24     0.461 
8006.51     0.461 
8007.77     0.462 
8009.03     0.462 
8010.29     0.463 
8011.55     0.463 
8012.82     0.463 
8014.08     0.463 
8015.34     0.464 
8016.60     0.464 
8017.86     0.465 
8019.13     0.466 
8020.39     0.465 
8021.65     0.465 
8022.91     0.466 
8024.17     0.466 
8025.44     0.466 
8026.70     0.466 
8027.96     0.467 
8029.22     0.467 
8030.49     0.467 
8031.75     0.468 
8033.01     0.468 
8034.27     0.469 
8035.53     0.469 
8036.80     0.469 
8038.06     0.469 
8039.32     0.470 
8040.58     0.470 
8041.84     0.471 
8043.11     0.471 
8044.37     0.471 
8045.63     0.471 
8046.89     0.471 
8048.15     0.472 
8049.42     0.472 
8050.68     0.472 
8051.94     0.472 
8053.20     0.473 
8054.47     0.473 
8055.73     0.473 
8056.99     0.474 
8058.25     0.473 
8059.51     0.473 
8060.78     0.474 
8062.04     0.474 
8063.30     0.474 
8064.56     0.474 
8065.82     0.474 
8067.09     0.475 
8068.35     0.475 
8069.61     0.475 
8070.87     0.475 
8072.13     0.476 
8073.40     0.476 
8074.66     0.476 
8075.92     0.476 
8077.18     0.475 
8078.45     0.475 
8079.71     0.476 
8080.97     0.476 
8082.23     0.476 
8083.49     0.476 
8084.76     0.477 
8086.02     0.477 
8087.28     0.477 
8088.54     0.477 
8089.80     0.478 
8091.07     0.477 
8092.33     0.477 
8093.59     0.478 
8094.85     0.478 
8096.11     0.478 
8097.38     0.478 
8098.64     0.478 
8099.90     0.478 
8101.16     0.479 
8102.43     0.478 
8103.69     0.478 
8104.95     0.479 
8106.21     0.479 
8107.47     0.479 
8108.74     0.479 
8110.00     0.479 
8111.26     0.479 
8112.52     0.479 
8113.78     0.479 
8115.05     0.480 
8116.31     0.479 
8117.57     0.479 
8118.83     0.480 
8120.09     0.480 
8121.36     0.479 
8122.62     0.480 
8123.88     0.480 
8125.14     0.480 
8126.41     0.480 
8127.67     0.480 
8128.93     0.480 
8130.19     0.480 
8131.45     0.480 
8132.72     0.480 
8133.98     0.480 
8135.24     0.480 
8136.50     0.480 
8137.76     0.480 
8139.03     0.480 
8140.29     0.480 
8141.55     0.480 
8142.81     0.480 
8144.07     0.480 
8145.34     0.480 
8146.60     0.480 
8147.86     0.480 
8149.12     0.480 
8150.38     0.480 
8151.65     0.480 
8152.91     0.480 
8154.17     0.480 
8155.43     0.481 
8156.70     0.481 
8157.96     0.480 
8159.22     0.480 
8160.48     0.481 
8161.74     0.481 
8163.01     0.480 
8164.27     0.480 
8165.53     0.480 
8166.79     0.480 
8168.05     0.481 
8169.32     0.481 
8170.58     0.480 
8171.84     0.480 
8173.10     0.480 
8174.36     0.480 
8175.63     0.480 
8176.89     0.480 
8178.15     0.480 
8179.41     0.481 
8180.68     0.480 
8181.94     0.480 
8183.20     0.480 
8184.46     0.480 
8185.72     0.480 
8186.99     0.480 
8188.25     0.480 
8189.51     0.480 
8190.77     0.480 
8192.03     0.480 
8193.30     0.480 
8194.56     0.480 
8195.82     0.480 
8197.08     0.479 
8198.34     0.480 
8199.61     0.480 
8200.87     0.479 
8202.13     0.479 
8203.39     0.480 
8204.66     0.479 
8205.92     0.480 
8207.18     0.480 
8208.44     0.479 
8209.70     0.479 
8210.97     0.479 
8212.23     0.479 
8213.49     0.479 
8214.75     0.479 
8216.01     0.479 
8217.28     0.479 
8218.54     0.479 
8219.80     0.479 
8221.06     0.478 
8222.32     0.479 
8223.59     0.478 
8224.85     0.478 
8226.11     0.478 
8227.37     0.478 
8228.64     0.479 
8229.90     0.479 
8231.16     0.478 
8232.42     0.478 
8233.68     0.478 
8234.95     0.478 
8236.21     0.478 
8237.47     0.478 
8238.73     0.478 
8239.99     0.477 
8241.26     0.478 
8242.52     0.477 
8243.78     0.477 
8245.04     0.478 
8246.30     0.477 
8247.57     0.477 
8248.83     0.477 
8250.09     0.477 
8251.35     0.477 
8252.62     0.477 
8253.88     0.477 
8255.14     0.476 
8256.40     0.477 
8257.66     0.477 
8258.93     0.477 
8260.19     0.476 
8261.45     0.475 
8262.71     0.475 
8263.97     0.475 
8265.24     0.476 
8266.50     0.476 
8267.76     0.475 
8269.02     0.475 
8270.28     0.475 
8271.55     0.475 
8272.81     0.475 
8274.07     0.475 
8275.33     0.474 
8276.59     0.475 
8277.86     0.474 
8279.12     0.474 
8280.38     0.474 
8281.64     0.474 
8282.91     0.475 
8284.17     0.475 
8285.43     0.474 
8286.69     0.474 
8287.95     0.474 
8289.22     0.474 
8290.48     0.474 
8291.74     0.473 
8293.00     0.473 
8294.26     0.473 
8295.53     0.473 
8296.79     0.473 
8298.05     0.472 
8299.31     0.472 
8300.57     0.473 
8301.84     0.473 
8303.10     0.472 
8304.36     0.472 
8305.62     0.472 
8306.89     0.472 
8308.15     0.471 
8309.41     0.472 
8310.67     0.472 
8311.93     0.471 
8313.20     0.471 
8314.46     0.471 
8315.72     0.471 
8316.98     0.471 
8318.24     0.471 
8319.51     0.471 
8320.77     0.471 
8322.03     0.470 
8323.29     0.470 
8324.55     0.470 
8325.82     0.470 
8327.08     0.470 
8328.34     0.470 
8329.60     0.470 
8330.87     0.470 
8332.13     0.470 
8333.39     0.469 
8334.65     0.469 
8335.91     0.469 
8337.18     0.469 
8338.44     0.468 
8339.70     0.468 
8340.96     0.468 
8342.22     0.468 
8343.49     0.468 
8344.75     0.468 
8346.01     0.468 
8347.27     0.468 
8348.53     0.467 
8349.80     0.467 
8351.06     0.466 
8352.32     0.467 
8353.58     0.466 
8354.85     0.466 
8356.11     0.467 
8357.37     0.467 
8358.63     0.467 
8359.89     0.467 
8361.16     0.466 
8362.42     0.466 
8363.68     0.465 
8364.94     0.465 
8366.20     0.465 
8367.47     0.465 
8368.73     0.465 
8369.99     0.465 
8371.25     0.464 
8372.51     0.464 
8373.78     0.464 
8375.04     0.463 
8376.30     0.464 
8377.56     0.464 
8378.83     0.464 
8380.09     0.463 
8381.35     0.462 
8382.61     0.463 
8383.87     0.463 
8385.14     0.463 
8386.40     0.463 
8387.66     0.462 
8388.92     0.463 
8390.18     0.463 
8391.45     0.462 
8392.71     0.461 
8393.97     0.461 
8395.23     0.462 
8396.49     0.461 
8397.76     0.461 
8399.02     0.461 
8400.28     0.460 
8401.54     0.461 
8402.80     0.461 
8404.07     0.460 
8405.33     0.460 
8406.59     0.460 
8407.85     0.460 
8409.12     0.460 
8410.38     0.459 
8411.64     0.459 
8412.90     0.459 
8414.16     0.459 
8415.43     0.459 
8416.69     0.459 
8417.95     0.458 
8419.21     0.458 
8420.47     0.458 
8421.74     0.458 
8423.00     0.458 
8424.26     0.458 
8425.52     0.458 
8426.78     0.457 
8428.05     0.457 
8429.31     0.457 
8430.57     0.457 
8431.83     0.457 
8433.10     0.456 
8434.36     0.456 
8435.62     0.456 
8436.88     0.456 
8438.14     0.456 
8439.41     0.455 
8440.67     0.455 
8441.93     0.455 
8443.19     0.456 
8444.45     0.455 
8445.72     0.454 
8446.98     0.455 
8448.24     0.454 
8449.50     0.453 
8450.76     0.454 
8452.03     0.454 
8453.29     0.454 
8454.55     0.453 
8455.81     0.453 
8457.08     0.453 
8458.34     0.453 
8459.60     0.453 
8460.86     0.453 
8462.12     0.453 
8463.39     0.452 
8464.65     0.452 
8465.91     0.452 
8467.17     0.452 
8468.43     0.451 
8469.70     0.451 
8470.96     0.451 
8472.22     0.451 
8473.48     0.451 
8474.74     0.451 
8476.01     0.451 
8477.27     0.450 
8478.53     0.450 
8479.79     0.451 
8481.06     0.449 
8482.32     0.449 
8483.58     0.450 
8484.84     0.450 
8486.10     0.450 
8487.37     0.450 
8488.63     0.448 
8489.89     0.449 
8491.15     0.449 
8492.41     0.448 
8493.68     0.449 
8494.94     0.449 
8496.20     0.448 
8497.46     0.448 
8498.72     0.448 
8499.99     0.447 
8501.25     0.447 
8502.51     0.447 
8503.77     0.447 
8505.03     0.447 
8506.30     0.447 
8507.56     0.446 
8508.82     0.446 
8510.08     0.446 
8511.35     0.446 
8512.61     0.446 
8513.87     0.445 
8515.13     0.445 
8516.39     0.445 
8517.66     0.444 
8518.92     0.444 
8520.18     0.445 
8521.44     0.445 
8522.70     0.444 
8523.97     0.444 
8525.23     0.443 
8526.49     0.443 
8527.75     0.443 
8529.01     0.443 
8530.28     0.443 
8531.54     0.443 
8532.80     0.442 
8534.06     0.442 
8535.33     0.442 
8536.59     0.442 
8537.85     0.442 
8539.11     0.441 
8540.37     0.442 
8541.64     0.441 
8542.90     0.441 
8544.16     0.440 
8545.42     0.440 
8546.68     0.441 
8547.95     0.441 
8549.21     0.440 
8550.47     0.440 
8551.73     0.439 
8552.99     0.439 
8554.26     0.439 
8555.52     0.439 
8556.78     0.439 
8558.04     0.440 
8559.31     0.439 
8560.57     0.439 
8561.83     0.439 
8563.09     0.438 
8564.35     0.437 
8565.62     0.438 
8566.88     0.438 
8568.14     0.438 
8569.40     0.438 
8570.66     0.438 
8571.93     0.438 
8573.19     0.437 
8574.45     0.436 
8575.71     0.436 
8576.97     0.437 
8578.24     0.436 
8579.50     0.435 
8580.76     0.436 
8582.02     0.435 
8583.29     0.435 
8584.55     0.435 
8585.81     0.435 
8587.07     0.435 
8588.33     0.435 
8589.60     0.435 
8590.86     0.434 
8592.12     0.434 
8593.38     0.434 
8594.64     0.433 
8595.91     0.433 
8597.17     0.433 
8598.43     0.433 
8599.69     0.433 
8600.95     0.432 
8602.22     0.433 
8603.48     0.433 
8604.74     0.432 
8606.00     0.431 
8607.27     0.431 
8608.53     0.432 
8609.79     0.432 
8611.05     0.431 
8612.31     0.431 
8613.58     0.430 
8614.84     0.430 
8616.10     0.431 
8617.36     0.431 
8618.62     0.430 
8619.89     0.430 
8621.15     0.430 
8622.41     0.429 
8623.67     0.430 
8624.93     0.429 
8626.20     0.429 
8627.46     0.428 
8628.72     0.428 
8629.98     0.428 
8631.24     0.428 
8632.51     0.428 
8633.77     0.428 
8635.03     0.428 
8636.29     0.428 
8637.56     0.428 
8638.82     0.427 
8640.08     0.426 
8641.34     0.427 
8642.60     0.427 
8643.87     0.426 
8645.13     0.425 
8646.39     0.426 
8647.65     0.426 
8648.91     0.426 
8650.18     0.426 
8651.44     0.425 
8652.70     0.426 
8653.96     0.426 
8655.22     0.425 
8656.49     0.425 
8657.75     0.424 
8659.01     0.424 
8660.27     0.424 
8661.54     0.423 
8662.80     0.424 
8664.06     0.424 
8665.32     0.423 
8666.58     0.423 
8667.85     0.424 
8669.11     0.423 
8670.37     0.422 
8671.63     0.423 
8672.89     0.422 
8674.16     0.422 
8675.42     0.422 
8676.68     0.421 
8677.94     0.421 
8679.20     0.421 
8680.47     0.421 
8681.73     0.420 
8682.99     0.420 
8684.25     0.420 
8685.52     0.420 
8686.78     0.420 
8688.04     0.420 
8689.30     0.420 
8690.56     0.420 
8691.83     0.419 
8693.09     0.419 
8694.35     0.418 
8695.61     0.417 
8696.87     0.419 
8698.14     0.418 
8699.40     0.418 
8700.66     0.418 
8701.92     0.416 
8703.18     0.416 
8704.45     0.417 
8705.71     0.416 
8706.97     0.416 
8708.23     0.417 
8709.50     0.416 
8710.76     0.415 
8712.02     0.416 
8713.28     0.416 
8714.54     0.416 
8715.81     0.415 
8717.07     0.415 
8718.33     0.414 
8719.59     0.415 
8720.85     0.415 
8722.12     0.414 
8723.38     0.414 
8724.64     0.414 
8725.90     0.413 
8727.16     0.413 
8728.43     0.413 
8729.69     0.414 
8730.95     0.413 
8732.21     0.412 
8733.48     0.412 
8734.74     0.412 
8736.00     0.412 
8737.26     0.412 
8738.52     0.411 
8739.79     0.411 
8741.05     0.411 
8742.31     0.411 
8743.57     0.411 
8744.83     0.411 
8746.10     0.410 
8747.36     0.409 
8748.62     0.410 
8749.88     0.410 
8751.14     0.410 
8752.41     0.409 
8753.67     0.409 
8754.93     0.409 
8756.19     0.408 
8757.45     0.408 
8758.72     0.408 
8759.98     0.407 
8761.24     0.408 
8762.50     0.408 
8763.77     0.408 
8765.03     0.408 
8766.29     0.407 
8767.55     0.408 
8768.81     0.406 
8770.08     0.405 
8771.34     0.405 
8772.60     0.406 
8773.86     0.406 
8775.12     0.405 
8776.39     0.405 
8777.65     0.406 
8778.91     0.405 
8780.17     0.405 
8781.43     0.405 
8782.70     0.405 
8783.96     0.405 
8785.22     0.405 
8786.48     0.403 
8787.75     0.403 
8789.01     0.404 
8790.27     0.403 
8791.53     0.403 
8792.79     0.403 
8794.06     0.402 
8795.32     0.402 
8796.58     0.402 
8797.84     0.402 
8799.10     0.402 
8800.37     0.402 
8801.63     0.401 
8802.89     0.401 
8804.15     0.401 
8805.41     0.401 
8806.68     0.400 
8807.94     0.401 
8809.20     0.401 
8810.46     0.400 
8811.73     0.400 
8812.99     0.400 
8814.25     0.400 
8815.51     0.399 
8816.77     0.399 
8818.04     0.399 
8819.30     0.399 
8820.56     0.398 
8821.82     0.398 
8823.08     0.398 
8824.35     0.398 
8825.61     0.398 
8826.87     0.397 
8828.13     0.398 
8829.39     0.398 
8830.66     0.396 
8831.92     0.396 
8833.18     0.397 
8834.44     0.397 
8835.71     0.396 
8836.97     0.396 
8838.23     0.395 
8839.49     0.395 
8840.75     0.395 
8842.02     0.396 
8843.28     0.395 
8844.54     0.395 
8845.80     0.395 
8847.06     0.395 
8848.33     0.394 
8849.59     0.394 
8850.85     0.394 
8852.11     0.394 
8853.37     0.393 
8854.64     0.393 
8855.90     0.394 
8857.16     0.393 
8858.42     0.391 
8859.69     0.391 
8860.95     0.392 
8862.21     0.392 
8863.47     0.392 
8864.73     0.391 
8866.00     0.391 
8867.26     0.391 
8868.52     0.391 
8869.78     0.391 
8871.04     0.390 
8872.31     0.390 
8873.57     0.390 
8874.83     0.390 
8876.09     0.390 
8877.35     0.389 
8878.62     0.389 
8879.88     0.389 
8881.14     0.390 
8882.40     0.389 
8883.66     0.388 
8884.93     0.389 
8886.19     0.388 
8887.45     0.388 
8888.71     0.388 
8889.98     0.387 
8891.24     0.387 
8892.50     0.386 
8893.76     0.387 
8895.02     0.386 
8896.29     0.387 
8897.55     0.386 
8898.81     0.385 
8900.07     0.386 
8901.33     0.386 
8902.60     0.385 
8903.86     0.385 
8905.12     0.385 
8906.38     0.385 
8907.64     0.384 
8908.91     0.384 
8910.17     0.384 
8911.43     0.383 
8912.69     0.384 
8913.96     0.383 
8915.22     0.383 
8916.48     0.383 
8917.74     0.383 
8919.00     0.382 
8920.27     0.381 
8921.53     0.381 
8922.79     0.381 
8924.05     0.381 
8925.31     0.382 
8926.58     0.381 
8927.84     0.381 
8929.10     0.381 
8930.36     0.380 
8931.62     0.380 
8932.89     0.381 
8934.15     0.380 
8935.41     0.380 
8936.67     0.380 
8937.94     0.379 
8939.20     0.379 
8940.46     0.379 
8941.72     0.379 
8942.98     0.379 
8944.25     0.379 
8945.51     0.379 
8946.77     0.377 
8948.03     0.377 
8949.29     0.377 
8950.56     0.378 
8951.82     0.378 
8953.08     0.377 
8954.34     0.376 
8955.60     0.376 
8956.87     0.377 
8958.13     0.376 
8959.39     0.375 
8960.65     0.375 
8961.92     0.375 
8963.18     0.375 
8964.44     0.374 
8965.70     0.374 
8966.96     0.374 
8968.23     0.374 
8969.49     0.373 
8970.75     0.372 
8972.01     0.373 
8973.27     0.373 
8974.54     0.373 
8975.80     0.372 
8977.06     0.372 
8978.32     0.372 
8979.58     0.371 
8980.85     0.371 
8982.11     0.372 
8983.37     0.371 
8984.63     0.370 
8985.90     0.370 
8987.16     0.370 
8988.42     0.371 
8989.68     0.370 
8990.94     0.370 
8992.21     0.370 
8993.47     0.370 
8994.73     0.369 
8995.99     0.370 
8997.25     0.369 
8998.52     0.368 
8999.78     0.369 
9001.04     0.368 
9002.30     0.367 
9003.56     0.367 
9004.83     0.367 
9006.09     0.367 
9007.35     0.366 
9008.61     0.367 
9009.87     0.365 
9011.14     0.365 
9012.40     0.365 
9013.66     0.365 
9014.92     0.365 
9016.19     0.365 
9017.45     0.363 
9018.71     0.363 
9019.97     0.364 
9021.23     0.363 
9022.50     0.363 
9023.76     0.362 
9025.02     0.362 
9026.28     0.361 
9027.54     0.361 
9028.81     0.360 
9030.07     0.360 
9031.33     0.359 
9032.59     0.358 
9033.85     0.359 
9035.12     0.358 
9036.38     0.358 
9037.64     0.357 
9038.90     0.358 
9040.17     0.358 
9041.43     0.357 
9042.69     0.356 
9043.95     0.355 
9045.21     0.356 
9046.48     0.355 
9047.74     0.355 
9049.00     0.354 
9050.26     0.353 
9051.52     0.353 
9052.79     0.353 
9054.05     0.353 
9055.31     0.352 
9056.57     0.352 
9057.83     0.351 
9059.10     0.348 
9060.36     0.343 
10500	    0.0