# The IMACS WB filter
#      WAVELENGTH      THROUGHPUT
#       angstroms
4400.13	0.165
4400.29	0.165
4400.44	0.173
4400.59	0.170
4400.75	0.175
4400.90	0.178
4410.05	0.188
4410.21	0.190
4410.36	0.186
4410.51	0.192
4410.67	0.199
4410.82	0.197
4410.97	0.205
4420.13	0.211
4420.28	0.204
4420.43	0.204
4420.58	0.209
4420.74	0.208
4420.89	0.205
4430.04	0.216
4430.20	0.216
4430.35	0.217
4430.50	0.214
4430.66	0.211
4430.81	0.213
4430.96	0.210
4440.11	0.216
4440.27	0.217
4440.42	0.220
4440.57	0.222
4440.73	0.220
4440.88	0.218
4450.03	0.221
4450.18	0.224
4450.34	0.231
4450.49	0.231
4450.64	0.235
4450.80	0.241
4450.95	0.235
4460.10	0.241
4460.25	0.244
4460.41	0.246
4460.56	0.253
4460.71	0.253
4460.86	0.266
4470.02	0.273
4470.17	0.280
4470.32	0.280
4470.47	0.287
4470.63	0.294
4470.78	0.296
4470.93	0.303
4480.08	0.307
4480.23	0.310
4480.39	0.313
4480.54	0.315
4480.69	0.331
4480.84	0.342
4490.00	0.348
4490.15	0.363
4490.30	0.369
4490.45	0.370
4490.60	0.374
4490.76	0.382
4490.91	0.396
4500.06	0.400
4500.21	0.399
4500.36	0.410
4500.52	0.412
4500.67	0.418
4500.82	0.430
4500.97	0.442
4510.12	0.456
4510.28	0.466
4510.43	0.480
4510.58	0.493
4510.73	0.493
4510.88	0.494
4520.04	0.502
4520.19	0.507
4520.34	0.511
4520.49	0.515
4520.64	0.523
4520.79	0.533
4520.95	0.542
4530.10	0.545
4530.25	0.548
4530.40	0.557
4530.55	0.565
4530.70	0.579
4530.85	0.582
4540.01	0.587
4540.16	0.593
4540.31	0.591
4540.46	0.594
4540.61	0.596
4540.76	0.602
4540.91	0.614
4550.07	0.617
4550.22	0.621
4550.37	0.627
4550.52	0.634
4550.67	0.642
4550.82	0.644
4550.97	0.650
4560.12	0.650
4560.28	0.658
4560.43	0.662
4560.58	0.672
4560.73	0.674
4560.88	0.675
4570.03	0.678
4570.18	0.675
4570.33	0.674
4570.48	0.676
4570.63	0.682
4570.79	0.687
4570.94	0.689
4580.09	0.693
4580.24	0.698
4580.39	0.698
4580.54	0.702
4580.69	0.708
4580.84	0.714
4580.99	0.726
4590.14	0.731
4590.29	0.743
4590.44	0.750
4590.60	0.767
4590.75	0.785
4590.90	0.808
4600.05	0.828
4600.20	0.856
4600.35	0.878
4600.50	0.906
4600.65	0.930
4600.80	0.954
4600.95	0.981
4610.10	1.007
4610.25	1.031
4610.40	1.056
4610.55	1.082
4610.70	1.106
4610.85	1.127
4620.00	1.150
4620.15	1.173
4620.30	1.203
4620.45	1.234
4620.60	1.268
4620.75	1.294
4620.90	1.322
4630.05	1.343
4630.20	1.376
4630.36	1.402
4630.51	1.432
4630.66	1.457
4630.81	1.486
4630.96	1.511
4640.11	1.533
4640.26	1.561
4640.41	1.602
4640.56	1.644
4640.71	1.686
4640.86	1.732
4650.00	1.781
4650.15	1.827
4650.30	1.869
4650.45	1.910
4650.60	1.953
4650.75	2.004
4650.90	2.056
4660.05	2.104
4660.20	2.154
4660.35	2.199
4660.50	2.246
4660.65	2.301
4660.80	2.357
4660.95	2.416
4670.10	2.482
4670.25	2.547
4670.40	2.608
4670.55	2.663
4670.70	2.728
4670.85	2.799
4680.00	2.865
4680.15	2.927
4680.30	2.998
4680.45	3.073
4680.60	3.155
4680.75	3.229
4680.89	3.300
4690.04	3.380
4690.19	3.466
4690.34	3.552
4690.49	3.637
4690.64	3.730
4690.79	3.824
4690.94	3.917
4700.09	4.011
4700.24	4.110
4700.39	4.213
4700.54	4.323
4700.68	4.435
4700.83	4.544
4700.98	4.654
4710.13	4.772
4710.28	4.893
4710.43	5.016
4710.58	5.146
4710.73	5.280
4710.88	5.420
4720.03	5.562
4720.17	5.707
4720.32	5.857
4720.47	6.011
4720.62	6.175
4720.77	6.344
4720.92	6.516
4730.07	6.697
4730.22	6.881
4730.36	7.066
4730.51	7.258
4730.66	7.459
4730.81	7.655
4730.96	7.869
4740.11	8.092
4740.26	8.326
4740.40	8.549
4740.55	8.791
4740.70	9.040
4740.85	9.291
4750.00	9.556
4750.15	9.830
4750.29	10.103
4750.44	10.394
4750.59	10.690
4750.74	10.996
4750.89	11.329
4760.04	11.662
4760.18	12.005
4760.33	12.365
4760.48	12.733
4760.63	13.120
4760.78	13.498
4760.93	13.910
4770.07	14.315
4770.22	14.724
4770.37	15.164
4770.52	15.613
4770.67	16.064
4770.81	16.553
4770.96	17.037
4780.11	17.539
4780.26	18.053
4780.41	18.595
4780.55	19.145
4780.70	19.718
4780.85	20.297
4790.00	20.889
4790.15	21.506
4790.29	22.159
4790.44	22.813
4790.59	23.484
4790.74	24.165
4790.88	24.875
4800.03	25.599
4800.18	26.350
4800.33	27.104
4800.47	27.889
4800.62	28.675
4800.77	29.471
4800.92	30.296
4810.06	31.154
4810.21	32.009
4810.36	32.899
4810.51	33.796
4810.65	34.714
4810.80	35.652
4810.95	36.606
4820.10	37.564
4820.24	38.526
4820.39	39.498
4820.54	40.491
4820.69	41.501
4820.83	42.518
4820.98	43.527
4830.13	44.545
4830.28	45.581
4830.42	46.628
4830.57	47.673
4830.72	48.741
4830.86	49.807
4840.01	50.861
4840.16	51.913
4840.31	52.967
4840.45	54.011
4840.60	55.053
4840.75	56.107
4840.89	57.141
4850.04	58.180
4850.19	59.215
4850.33	60.246
4850.48	61.250
4850.63	62.253
4850.77	63.241
4850.92	64.218
4860.07	65.195
4860.22	66.146
4860.36	67.082
4860.51	67.999
4860.66	68.914
4860.80	69.784
4860.95	70.653
4870.10	71.505
4870.24	72.337
4870.39	73.141
4870.54	73.940
4870.68	74.720
4870.83	75.462
4870.97	76.194
4880.12	76.915
4880.27	77.619
4880.41	78.291
4880.56	78.946
4880.71	79.581
4880.85	80.192
4890.00	80.776
4890.15	81.333
4890.29	81.886
4890.44	82.417
4890.58	82.942
4890.73	83.453
4890.88	83.949
4900.02	84.413
4900.17	84.871
4900.32	85.303
4900.46	85.724
4900.61	86.118
4900.75	86.510
4900.90	86.891
4910.05	87.256
4910.19	87.588
4910.34	87.913
4910.48	88.214
4910.63	88.510
4910.78	88.811
4910.92	89.090
4920.07	89.368
4920.21	89.637
4920.36	89.892
4920.51	90.130
4920.65	90.350
4920.80	90.555
4920.94	90.770
4930.09	90.974
4930.23	91.168
4930.38	91.367
4930.53	91.544
4930.67	91.711
4930.82	91.868
4930.96	92.015
4940.11	92.151
4940.25	92.295
4940.40	92.422
4940.55	92.553
4940.69	92.675
4940.84	92.779
4940.98	92.892
4950.13	92.993
4950.27	93.068
4950.42	93.141
4950.56	93.217
4950.71	93.299
4950.85	93.365
4960.00	93.419
4960.14	93.474
4960.29	93.526
4960.44	93.555
4960.58	93.596
4960.73	93.621
4960.87	93.649
4970.02	93.672
4970.16	93.698
4970.31	93.715
4970.45	93.719
4970.60	93.728
4970.74	93.726
4970.89	93.718
4980.03	93.697
4980.18	93.677
4980.32	93.665
4980.47	93.649
4980.61	93.627
4980.76	93.591
4980.90	93.561
4990.05	93.528
4990.19	93.474
4990.34	93.421
4990.48	93.368
4990.63	93.320
4990.77	93.268
4990.92	93.218
5000.06	93.163
5000.20	93.113
5000.35	93.059
5000.49	92.993
5000.64	92.931
5000.78	92.871
5000.93	92.805
5010.07	92.740
5010.22	92.670
5010.36	92.603
5010.51	92.553
5010.65	92.488
5010.79	92.432
5010.94	92.381
5020.08	92.324
5020.23	92.266
5020.37	92.216
5020.52	92.168
5020.66	92.114
5020.81	92.066
5020.95	92.005
5030.09	91.970
5030.24	91.909
5030.38	91.846
5030.53	91.820
5030.67	91.776
5030.81	91.731
5030.96	91.698
5040.10	91.675
5040.25	91.652
5040.39	91.626
5040.54	91.584
5040.68	91.565
5040.82	91.542
5040.97	91.516
5050.11	91.487
5050.25	91.476
5050.40	91.455
5050.54	91.453
5050.69	91.440
5050.83	91.441
5050.97	91.447
5060.12	91.438
5060.26	91.446
5060.41	91.464
5060.55	91.472
5060.69	91.482
5060.84	91.501
5060.98	91.515
5070.12	91.532
5070.27	91.557
5070.41	91.594
5070.55	91.632
5070.70	91.667
5070.84	91.702
5070.99	91.716
5080.13	91.745
5080.27	91.783
5080.42	91.827
5080.56	91.861
5080.70	91.903
5080.85	91.938
5080.99	91.984
5090.13	92.027
5090.28	92.058
5090.42	92.108
5090.56	92.160
5090.71	92.213
5090.85	92.256
5090.99	92.307
5100.14	92.361
5100.28	92.397
5100.42	92.422
5100.56	92.463
5100.71	92.511
5100.85	92.545
5100.99	92.606
5110.14	92.664
5110.28	92.710
5110.42	92.747
5110.57	92.771
5110.71	92.798
5110.85	92.844
5110.99	92.885
5120.14	92.930
5120.28	92.984
5120.42	93.019
5120.57	93.047
5120.71	93.081
5120.85	93.111
5120.99	93.128
5130.14	93.154
5130.28	93.188
5130.42	93.232
5130.57	93.260
5130.71	93.264
5130.85	93.291
5130.99	93.316
5140.14	93.328
5140.28	93.347
5140.42	93.374
5140.56	93.411
5140.71	93.445
5140.85	93.447
5140.99	93.447
5150.13	93.437
5150.28	93.437
5150.42	93.448
5150.56	93.448
5150.70	93.454
5150.85	93.466
5150.99	93.483
5160.13	93.465
5160.27	93.471
5160.41	93.456
5160.56	93.441
5160.70	93.438
5160.84	93.435
5160.98	93.431
5170.13	93.424
5170.27	93.421
5170.41	93.404
5170.55	93.395
5170.69	93.370
5170.84	93.364
5170.98	93.360
5180.12	93.357
5180.26	93.347
5180.40	93.317
5180.55	93.298
5180.69	93.262
5180.83	93.225
5180.97	93.189
5190.11	93.179
5190.25	93.145
5190.40	93.138
5190.54	93.122
5190.68	93.093
5190.82	93.064
5190.96	93.023
5200.10	93.000
5200.25	92.950
5200.39	92.909
5200.53	92.866
5200.67	92.832
5200.81	92.803
5200.95	92.762
5210.10	92.710
5210.24	92.657
5210.38	92.620
5210.52	92.563
5210.66	92.525
5210.80	92.491
5210.94	92.443
5220.09	92.406
5220.23	92.368
5220.37	92.316
5220.51	92.266
5220.65	92.222
5220.79	92.184
5220.93	92.143
5230.07	92.094
5230.22	92.054
5230.36	92.004
5230.50	91.964
5230.64	91.932
5230.78	91.885
5230.92	91.858
5240.06	91.830
5240.20	91.788
5240.34	91.756
5240.49	91.746
5240.63	91.701
5240.77	91.666
5240.91	91.630
5250.05	91.578
5250.19	91.521
5250.33	91.473
5250.47	91.452
5250.61	91.428
5250.75	91.377
5250.89	91.335
5260.03	91.286
5260.18	91.258
5260.32	91.227
5260.46	91.190
5260.60	91.152
5260.74	91.099
5260.88	91.025
5270.02	90.978
5270.16	90.965
5270.30	90.931
5270.44	90.882
5270.58	90.867
5270.72	90.844
5270.86	90.828
5280.00	90.799
5280.14	90.787
5280.28	90.753
5280.42	90.705
5280.56	90.668
5280.71	90.626
5280.85	90.601
5280.99	90.577
5290.13	90.543
5290.27	90.516
5290.41	90.487
5290.55	90.464
5290.69	90.458
5290.83	90.464
5290.97	90.448
5300.11	90.413
5300.25	90.375
5300.39	90.375
5300.53	90.345
5300.67	90.313
5300.81	90.276
5300.95	90.256
5310.09	90.208
5310.23	90.198
5310.37	90.186
5310.51	90.158
5310.65	90.158
5310.79	90.140
5310.93	90.127
5320.07	90.125
5320.21	90.115
5320.35	90.097
5320.49	90.085
5320.63	90.072
5320.77	90.063
5320.91	90.077
5330.04	90.070
5330.18	90.073
5330.32	90.064
5330.46	90.077
5330.60	90.069
5330.74	90.088
5330.88	90.093
5340.02	90.125
5340.16	90.139
5340.30	90.138
5340.44	90.158
5340.58	90.164
5340.72	90.192
5340.86	90.222
5350.00	90.229
5350.14	90.243
5350.28	90.291
5350.42	90.313
5350.56	90.338
5350.69	90.378
5350.83	90.375
5350.97	90.392
5360.11	90.374
5360.25	90.392
5360.39	90.404
5360.53	90.443
5360.67	90.456
5360.81	90.492
5360.95	90.512
5370.09	90.494
5370.22	90.539
5370.36	90.566
5370.50	90.601
5370.64	90.591
5370.78	90.629
5370.92	90.660
5380.06	90.690
5380.20	90.710
5380.34	90.740
5380.47	90.775
5380.61	90.807
5380.75	90.828
5380.89	90.862
5390.03	90.950
5390.17	91.003
5390.31	91.038
5390.45	91.083
5390.58	91.121
5390.72	91.149
5390.86	91.197
5400.00	91.275
5400.14	91.298
5400.28	91.329
5400.42	91.378
5400.55	91.456
5400.69	91.499
5400.83	91.559
5400.97	91.661
5410.11	91.710
5410.25	91.797
5410.38	91.868
5410.52	91.902
5410.66	91.979
5410.80	92.035
5410.94	92.080
5420.08	92.095
5420.21	92.165
5420.35	92.208
5420.49	92.278
5420.63	92.321
5420.77	92.406
5420.91	92.494
5430.04	92.575
5430.18	92.618
5430.32	92.668
5430.46	92.727
5430.60	92.788
5430.73	92.838
5430.87	92.828
5440.01	92.892
5440.15	92.905
5440.29	92.922
5440.42	92.968
5440.56	93.008
5440.70	93.081
5440.84	93.128
5440.97	93.204
5450.11	93.270
5450.25	93.317
5450.39	93.335
5450.53	93.424
5450.66	93.415
5450.80	93.420
5450.94	93.437
5460.08	93.530
5460.21	93.613
5460.35	93.653
5460.49	93.667
5460.63	93.691
5460.76	93.787
5460.90	93.826
5470.04	93.866
5470.18	93.908
5470.31	93.918
5470.45	93.967
5470.59	93.994
5470.73	94.031
5470.86	94.076
5480.00	94.060
5480.14	94.106
5480.28	94.179
5480.41	94.192
5480.55	94.254
5480.69	94.300
5480.82	94.340
5480.96	94.374
5490.10	94.410
5490.24	94.437
5490.37	94.480
5490.51	94.526
5490.65	94.512
5490.78	94.515
5490.92	94.541
5500.06	94.606
5500.19	94.660
5500.33	94.668
5500.47	94.729
5500.61	94.763
5500.74	94.739
5500.88	94.744
5510.02	94.780
5510.15	94.811
5510.29	94.801
5510.43	94.807
5510.56	94.819
5510.70	94.877
5510.84	94.884
5510.97	94.862
5520.11	94.911
5520.25	94.939
5520.38	94.966
5520.52	94.985
5520.66	95.033
5520.79	95.061
5520.93	95.020
5530.07	95.025
5530.20	95.060
5530.34	94.968
5530.48	94.981
5530.61	94.986
5530.75	95.015
5530.88	95.039
5540.02	95.022
5540.16	95.109
5540.29	95.191
5540.43	95.205
5540.57	95.200
5540.70	95.249
5540.84	95.260
5540.97	95.209
5550.11	95.189
5550.25	95.158
5550.38	95.106
5550.52	95.101
5550.66	95.156
5550.79	95.190
5550.93	95.226
5560.06	95.206
5560.20	95.280
5560.34	95.297
5560.47	95.320
5560.61	95.327
5560.74	95.313
5560.88	95.319
5570.02	95.289
5570.15	95.202
5570.29	95.262
5570.42	95.300
5570.56	95.331
5570.69	95.354
5570.83	95.394
5570.97	95.386
5580.10	95.461
5580.24	95.502
5580.37	95.413
5580.51	95.322
5580.64	95.301
5580.78	95.275
5580.92	95.313
5590.05	95.302
5590.19	95.360
5590.32	95.312
5590.46	95.319
5590.59	95.264
5590.73	95.212
5590.86	95.178
5600.00	95.250
5600.13	95.218
5600.27	95.119
5600.41	95.107
5600.54	95.123
5600.68	95.088
5600.81	95.068
5600.95	95.011
5610.08	95.009
5610.22	95.018
5610.35	94.984
5610.49	95.020
5610.62	95.059
5610.76	95.063
5610.89	95.093
5620.03	94.970
5620.16	94.983
5620.30	94.987
5620.43	94.916
5620.57	94.924
5620.70	94.904
5620.84	94.820
5620.97	94.806
5630.11	94.823
5630.24	94.781
5630.38	94.660
5630.51	94.557
5630.65	94.563
5630.78	94.529
5630.92	94.486
5640.05	94.597
5640.19	94.652
5640.32	94.526
5640.46	94.415
5640.59	94.459
5640.72	94.505
5640.86	94.608
5640.99	94.738
5650.13	94.743
5650.26	94.815
5650.40	94.873
5650.53	94.766
5650.67	94.672
5650.80	94.541
5650.94	94.428
5660.07	94.325
5660.20	94.356
5660.34	94.464
5660.47	94.471
5660.61	94.454
5660.74	94.451
5660.88	94.245
5670.01	94.154
5670.14	94.060
5670.28	93.988
5670.41	93.757
5670.55	93.669
5670.68	93.493
5670.82	93.391
5670.95	93.480
5680.08	93.549
5680.22	93.569
5680.35	93.892
5680.49	94.127
5680.62	94.339
5680.75	94.522
5680.89	94.592
5690.02	94.593
5690.16	94.515
5690.29	94.485
5690.42	94.443
5690.56	94.426
5690.69	94.470
5690.82	94.567
5690.96	94.745
5700.09	94.826
5700.23	94.993
5700.36	95.044
5700.49	95.144
5700.63	95.131
5700.76	94.987
5700.89	94.865
5710.03	94.762
5710.16	94.554
5710.30	94.339
5710.43	94.108
5710.56	93.893
5710.70	93.696
5710.83	93.569
5710.96	93.609
5720.10	93.594
5720.23	93.743
5720.36	94.023
5720.50	94.312
5720.63	94.311
5720.76	94.418
5720.90	94.508
5730.03	94.514
5730.16	94.217
5730.30	94.035
5730.43	93.807
5730.56	93.662
5730.70	93.511
5730.83	93.392
5730.96	93.286
5740.10	93.261
5740.23	93.357
5740.36	93.550
5740.49	93.885
5740.63	94.148
5740.76	94.246
5740.89	94.399
5750.03	94.152
5750.16	93.832
5750.29	93.509
5750.43	93.270
5750.56	92.975
5750.69	92.871
5750.82	92.597
5750.96	92.656
5760.09	92.659
5760.22	92.821
5760.35	93.071
5760.49	93.485
5760.62	93.853
5760.75	94.008
5760.89	94.319
5770.02	94.391
5770.15	94.364
5770.28	94.170
5770.42	94.152
5770.55	94.000
5770.68	93.678
5770.81	93.628
5770.95	93.359
5780.08	93.263
5780.21	93.094
5780.34	93.052
5780.48	92.970
5780.61	92.849
5780.74	93.076
5780.87	93.240
5790.01	93.411
5790.14	93.395
5790.27	93.338
5790.40	93.265
5790.53	93.154
5790.67	92.900
5790.80	92.713
5790.93	92.702
5800.06	5.000
5800.20	5.000
5800.33	5.000
5800.46	5.000
5800.59	5.000
5800.72	5.000
5800.86	5.000
5800.99	5.000
5810.12	5.000
5810.25	5.000
5810.38	5.000
5810.52	5.000
5810.65	5.000
5810.78	5.000
5810.91	5.000
5820.04	5.000
5820.17	5.000
5820.31	5.000
5820.44	5.000
5820.57	5.000
5820.70	5.000
5820.83	5.000
5820.96	5.000
5830.10	5.000
5830.23	5.000
5830.36	5.000
5830.49	5.000
5830.62	5.000
5830.75	5.000
5830.89	5.000
5840.02	5.000
5840.15	5.000
5840.28	5.000
5840.41	5.000
5840.54	5.000
5840.67	5.000
5840.81	5.000
5840.94	5.000
5850.07	5.000
5850.20	5.000
5850.33	5.000
5850.46	5.000
5850.59	5.000
5850.72	5.000
5850.86	5.000
5850.99	5.000
5860.12	5.000
5860.25	5.000
5860.38	5.000
5860.51	5.000
5860.64	5.000
5860.77	5.000
5860.90	5.000
5870.04	5.000
5870.17	5.000
5870.30	5.000
5870.43	5.000
5870.56	5.000
5870.69	5.000
5870.82	5.000
5870.95	5.000
5880.08	5.000
5880.21	5.000
5880.34	5.000
5880.47	5.000
5880.61	5.000
5880.74	5.000
5880.87	5.000
5890.00	5.000
5890.13	5.000
5890.26	5.000
5890.39	5.000
5890.52	5.000
5890.65	5.000
5890.78	5.000
5890.91	5.000
5900.04	5.000
5900.17	5.000
5900.30	5.000
5900.43	5.000
5900.56	5.000
5900.69	5.000
5900.82	5.000
5900.95	5.000
5910.08	5.000
5910.22	5.000
5910.35	5.000
5910.48	5.000
5910.61	5.000
5910.74	5.000
5910.87	5.000
5920.00	5.000
5920.13	5.000
5920.26	5.000
5920.39	5.000
5920.52	5.000
5920.65	5.000
5920.78	5.000
5920.91	5.000
5930.04	5.000
5930.17	5.000
5930.30	5.000
5930.43	5.000
5930.56	5.000
5930.69	5.000
5930.82	5.000
5930.95	5.000
5940.08	5.000
5940.21	5.000
5940.34	5.000
5940.47	5.000
5940.60	5.000
5940.72	5.000
5940.85	5.000
5940.98	5.000
5950.11	5.000
5950.24	5.000
5950.37	5.000
5950.50	5.000
5950.63	5.000
5950.76	5.000
5950.89	5.000
5960.02	5.000
5960.15	5.000
5960.28	5.000
5960.41	5.000
5960.54	5.000
5960.67	5.000
5960.80	5.000
5960.93	5.000
5970.06	5.000
5970.19	5.000
5970.31	5.000
5970.44	5.000
5970.57	5.000
5970.70	5.000
5970.83	5.000
5970.96	5.000
5980.09	5.000
5980.22	5.000
5980.35	5.000
5980.48	5.000
5980.61	5.000
5980.73	5.000
5980.86	5.000
5980.99	5.000
5990.12	5.000
5990.25	5.000
5990.38	5.000
5990.51	5.000
5990.64	5.000
5990.77	5.000
5990.90	5.000
6000.25	95.652
6000.59	95.684
6000.93	95.735
6010.28	95.767
6010.62	95.761
6010.97	95.760
6020.31	95.753
6020.66	95.781
6030.00	95.738
6030.34	95.786
6030.69	95.886
6040.03	95.916
6040.37	95.932
6040.72	95.912
6050.06	95.902
6050.41	95.922
6050.75	95.961
6060.09	96.004
6060.44	96.015
6060.78	96.068
6070.12	96.110
6070.47	96.102
6070.81	96.129
6080.15	96.155
6080.50	96.213
6080.84	96.264
6090.18	96.309
6090.53	96.327
6090.87	96.347
6100.21	96.388
6100.56	96.429
6100.90	96.432
6110.24	96.440
6110.58	96.504
6110.93	96.526
6120.27	96.563
6120.61	96.586
6120.96	96.598
6130.30	96.644
6130.64	96.680
6130.98	96.694
6140.33	96.732
6140.67	96.787
6150.01	96.836
6150.35	96.847
6150.70	96.879
6160.04	96.872
6160.38	96.909
6160.72	96.952
6170.06	96.959
6170.41	96.985
6170.75	96.978
6180.09	96.960
6180.43	96.955
6180.78	96.969
6190.12	97.010
6190.46	97.026
6190.80	97.054
6200.14	97.061
6200.48	97.077
6200.83	97.102
6210.17	97.065
6210.51	97.101
6210.85	97.117
6220.19	97.134
6220.53	97.151
6220.88	97.106
6230.22	97.105
6230.56	97.096
6230.90	97.088
6240.24	97.038
6240.58	97.057
6240.92	97.101
6250.26	97.093
6250.61	97.085
6250.95	97.066
6260.29	97.057
6260.63	97.058
6260.97	97.044
6270.31	97.043
6270.65	97.017
6270.99	97.041
6280.33	97.017
6280.67	96.984
6290.01	96.962
6290.35	96.963
6290.70	96.943
6300.04	96.899
6300.38	96.861
6300.72	96.820
6310.06	96.791
6310.40	96.751
6310.74	96.729
6320.08	96.693
6320.42	96.679
6320.76	96.667
6330.10	96.639
6330.44	96.633
6330.78	96.631
6340.12	96.640
6340.46	96.645
6340.80	96.667
6350.14	96.671
6350.48	96.655
6350.82	96.658
6360.16	96.668
6360.50	96.664
6360.84	96.664
6370.18	96.646
6370.52	96.658
6370.86	96.636
6380.20	96.670
6380.54	96.649
6380.87	96.676
6390.21	96.683
6390.55	96.705
6390.89	96.725
6400.23	96.715
6400.57	96.731
6400.91	96.752
6410.25	96.737
6410.59	96.756
6410.93	96.747
6420.27	96.766
6420.61	96.783
6420.94	96.802
6430.28	96.802
6430.62	96.759
6430.96	96.771
6440.30	96.758
6440.64	96.771
6440.98	96.779
6450.32	96.790
6450.65	96.788
6450.99	96.788
6460.33	96.770
6460.67	96.748
6470.01	96.711
6470.35	96.708
6470.68	96.734
6480.02	96.750
6480.36	96.785
6480.70	96.793
6490.04	96.824
6490.38	96.865
6490.71	96.899
6500.05	96.913
6500.39	96.934
6500.73	96.988
6510.06	97.056
6510.40	97.035
6510.74	97.048
6520.08	97.010
6520.42	96.996
6520.75	96.965
6530.09	96.963
6530.43	96.944
6530.77	96.950
6540.10	96.946
6540.44	96.908
6540.78	96.871
6550.12	96.903
6550.45	96.888
6550.79	96.880
6560.13	96.909
6560.46	96.899
6560.80	96.868
6570.14	96.838
6570.48	96.825
6570.81	96.802
6580.15	96.793
6580.49	96.778
6580.82	96.762
6590.16	96.725
6590.50	96.703
6590.83	96.655
6600.17	96.655
6600.51	96.644
6600.84	96.646
6610.18	96.644
6610.52	96.670
6610.85	96.691
6620.19	96.674
6620.53	96.649
6620.86	96.661
6630.20	96.686
6630.53	96.684
6630.87	96.681
6640.21	96.685
6640.54	96.675
6640.88	96.666
6650.21	96.616
6650.55	96.589
6650.89	96.617
6660.22	96.627
6660.56	96.647
6660.89	96.662
6670.23	96.692
6670.57	96.698
6670.90	96.722
6680.24	96.748
6680.57	96.785
6680.91	96.847
6690.24	96.912
6690.58	96.972
6690.91	96.989
6700.25	97.005
6700.59	97.009
6700.92	97.077
6710.26	97.114
6710.59	97.113
6710.93	97.139
6720.26	97.148
6720.60	97.175
6720.93	97.190
6730.27	97.180
6730.60	97.219
6730.94	97.257
6740.27	97.327
6740.61	97.323
6740.94	97.372
6750.28	97.414
6750.61	97.440
6750.94	97.441
6760.28	97.442
6760.61	97.431
6760.95	97.453
6770.28	97.469
6770.62	97.482
6770.95	97.484
6780.29	97.492
6780.62	97.519
6780.95	97.535
6790.29	97.534
6790.62	97.614
6790.96	97.642
6800.29	97.689
6800.62	97.693
6800.96	97.697
6810.29	97.718
6810.63	97.711
6810.96	97.719
6820.29	97.675
6820.63	97.672
6820.96	97.692
6830.30	97.662
6830.63	97.681
6830.96	97.644
6840.30	97.668
6840.63	97.653
6840.96	97.623
6850.30	97.641
6850.63	97.642
6850.96	97.645
6860.30	97.664
6860.63	97.640
6860.96	97.631
6870.30	97.603
6870.63	97.642
6870.96	97.612
6880.30	97.621
6880.63	97.647
6880.96	97.662
6890.29	97.685
6890.63	97.704
6890.96	97.732
6900.29	97.771
6900.62	97.790
6900.96	97.788
6910.29	97.771
6910.62	97.791
6910.96	97.810
6920.29	97.792
6920.62	97.778
6920.95	97.768
6930.29	97.769
6930.62	97.726
6930.95	97.710
6940.28	97.672
6940.61	97.696
6940.95	97.642
6950.28	97.619
6950.61	97.626
6950.94	97.671
6960.27	97.671
6960.61	97.630
6960.94	97.624
6970.27	97.623
6970.60	97.643
6970.93	97.695
6980.27	97.711
6980.60	97.794
6980.93	97.831
6990.26	97.859
6990.59	97.825
6990.92	97.834
7000.25	97.900
7000.59	97.942
7000.92	97.974
7010.25	97.971
7010.58	97.938
7010.91	97.919
7020.24	97.943
7020.57	97.910
7020.90	97.888
7030.24	97.935
7030.57	97.942
7030.90	97.954
7040.23	97.967
7040.56	97.965
7040.89	97.994
7050.22	98.014
7050.55	98.037
7050.88	98.018
7060.21	98.039
7060.54	98.048
7060.87	98.052
7070.20	97.995
7070.54	97.974
7070.87	97.981
7080.20	97.990
7080.53	97.970
7080.86	97.979
7090.19	97.976
7090.52	97.944
7090.85	97.965
7100.18	97.931
7100.51	97.900
7100.84	97.943
7110.17	97.934
7110.50	97.874
7110.83	97.840
7120.16	97.831
7120.49	97.785
7120.82	97.762
7130.15	97.777
7130.48	97.761
7130.81	97.786
7140.14	97.774
7140.47	97.825
7140.80	97.817
7150.12	97.835
7150.45	97.859
7150.78	97.908
7160.11	97.955
7160.44	97.992
7160.77	98.024
7170.10	98.018
7170.43	98.013
7170.76	98.009
7180.09	97.969
7180.42	97.956
7180.75	97.946
7190.08	97.932
7190.40	97.883
7190.73	97.873
7200.06	97.847
7200.39	97.827
7200.72	97.823
7210.05	97.837
7210.38	97.900
7210.71	97.883
7220.03	97.918
7220.36	97.913
7220.69	97.929
7230.02	97.902
7230.35	97.890
7230.68	97.874
7240.00	97.849
7240.33	97.834
7240.66	97.827
7240.99	97.768
7250.32	97.789
7250.65	97.761
7250.97	97.776
7260.30	97.768
7260.63	97.786
7260.96	97.754
7270.29	97.744
7270.61	97.723
7270.94	97.722
7280.27	97.669
7280.60	97.629
7280.92	97.573
7290.25	97.531
7290.58	97.480
7290.91	97.424
7300.23	97.401
7300.56	97.348
7300.89	97.307
7310.22	97.250
7310.54	97.203
7310.87	97.174
7320.20	97.156
7320.53	97.091
7320.85	97.038
7330.18	96.975
7330.51	96.879
7330.83	96.775
7340.16	96.720
7340.49	96.624
7340.81	96.570
7350.14	96.453
7350.47	96.338
7350.79	96.251
7360.12	96.135
7360.45	95.999
7360.77	95.896
7370.10	95.848
7370.43	95.750
7370.75	95.669
7380.08	95.583
7380.41	95.447
7380.73	95.331
7390.06	95.244
7390.39	95.113
7390.71	95.028
7400.04	94.961
7400.36	94.896
7400.69	94.773
7410.02	94.704
7410.34	94.618
7410.67	94.529
7410.99	94.487
7420.32	94.438
7420.65	94.343
7420.97	94.277
7430.30	94.235
7430.62	94.214
7430.95	94.169
7440.28	94.131
7440.60	94.064
7440.93	94.025
7450.25	94.009
7450.58	93.978
7450.90	93.992
7460.23	94.001
7460.55	94.013
7460.88	93.998
7470.20	93.987
7470.53	93.971
7470.85	94.006
7480.18	94.039
7480.50	94.051
7480.83	94.080
7490.15	94.122
7490.48	94.169
7490.80	94.222
7500.13	94.283
7500.45	94.375
7500.78	94.450
7510.10	94.528
7510.43	94.615
7510.75	94.683
7520.08	94.794
7520.40	94.898
7520.73	94.982
7530.05	95.056
7530.37	95.189
7530.70	95.286
7540.02	95.369
7540.35	95.458
7540.67	95.559
7550.00	95.651
7550.32	95.749
7550.64	95.830
7550.97	95.935
7560.29	96.042
7560.62	96.146
7560.94	96.230
7570.26	96.301
7570.59	96.378
7570.91	96.419
7580.24	96.530
7580.56	96.594
7580.88	96.666
7590.21	96.724
7590.53	96.786
7590.85	96.861
7600.18	96.884
7600.50	96.892
7600.82	96.918
7610.15	96.965
7610.47	97.047
7610.79	97.047
7620.12	97.057
7620.44	97.075
7620.76	97.100
7630.09	97.083
7630.41	97.064
7630.73	97.025
7640.06	97.023
7640.38	96.994
7640.70	96.910
7650.02	96.833
7650.35	96.748
7650.67	96.699
7650.99	96.641
7660.32	96.558
7660.64	96.448
7660.96	96.323
7670.28	96.267
7670.61	96.130
7670.93	96.023
7680.25	95.938
7680.57	95.811
7680.90	95.680
7690.22	95.545
7690.54	95.418
7690.86	95.291
7700.18	95.180
7700.51	95.031
7700.83	94.888
7710.15	94.778
7710.47	94.637
7710.79	94.465
7720.12	94.311
7720.44	94.121
7720.76	93.915
7730.08	93.690
7730.40	93.416
7730.72	93.170
7740.05	92.919
7740.37	92.612
7740.69	92.283
7750.01	91.930
7750.33	91.564
7750.65	91.134
7750.97	90.732
7760.30	90.236
7760.62	89.730
7760.94	89.141
7770.26	88.499
7770.58	87.784
7770.90	87.031
7780.22	86.182
7780.54	85.287
7780.87	84.330
7790.19	83.328
7790.51	82.162
7790.83	80.968
7800.15	79.698
7800.47	78.403
7800.79	76.967
7810.11	75.504
7810.43	73.955
7810.75	72.402
7820.07	70.729
7820.39	68.997
7820.71	67.161
7830.03	65.346
7830.35	63.471
7830.67	61.512
7830.99	59.539
7840.31	57.545
7840.64	55.534
7840.96	53.534
7850.28	51.486
7850.60	49.473
7850.92	47.434
7860.24	45.507
7860.56	43.606
7860.88	41.716
7870.19	39.830
7870.51	38.018
7870.83	36.240
7880.15	34.534
7880.47	32.891
7880.79	31.290
7890.11	29.740
7890.43	28.284
7890.75	26.847
7900.07	25.472
7900.39	24.163
7900.71	22.934
7910.03	21.732
7910.35	20.606
7910.67	19.533
7910.99	18.496
7920.31	17.556
7920.63	16.635
7920.94	15.768
7930.26	14.962
7930.58	14.169
7930.90	13.413
7940.22	12.735
7940.54	12.077
7940.86	11.482
7950.18	10.926
7950.50	10.394
7950.81	9.869
7960.13	9.407
7960.45	8.926
7960.77	8.496
7970.09	8.098
7970.41	7.722
7970.73	7.339
7980.04	7.010
7980.36	6.680
7980.68	6.350
7990.00	6.068
7990.32	5.792
7990.63	5.530
7990.95	5.297
8000.27	5.041
8000.59	4.804
8000.91	4.571
8010.22	4.379
8010.54	4.208
8010.86	4.043
8020.18	3.869
8020.50	3.691
8020.81	3.545
8030.13	3.394
8030.45	3.274
8030.77	3.151
8040.08	3.040
8040.40	2.950
8040.72	2.813
8050.04	2.674
8050.35	2.545
8050.67	2.458
8050.99	2.383
8060.31	2.284
8060.62	2.195
8060.94	2.089
8070.26	2.014
8070.57	1.939
8070.89	1.885
8080.21	1.861
8080.52	1.815
8080.84	1.756
8090.16	1.692
8090.48	1.638
8090.79	1.582
8100.11	1.530
8100.43	1.504
8100.74	1.468
8110.06	1.432
8110.37	1.379
8110.69	1.335
8120.01	1.327
8120.32	1.335
8120.64	1.338
8120.96	1.294
8130.27	1.277
8130.59	1.276
8130.91	1.248
8140.22	1.236
8140.54	1.203
8140.85	1.164
8150.17	1.131
8150.49	1.075
8150.80	1.019
8160.12	0.969
8160.43	0.957
8160.75	0.938
8170.06	0.870
8170.38	0.849
8170.70	0.787
8180.01	0.753
8180.33	0.744
8180.64	0.710
8180.96	0.701
8190.27	0.674
8190.59	0.653
8190.90	0.617
8200.22	0.586

