# The Gemini NIRI Y filter, taken from the instrument website
#
# wav  transmission
9000  -0.00317  
9002.5  0.00141  
9005  0.00191  
9007.5  -0.00172  
9010  0.00165  
9012.5  -0.00118  
9015  1e-05  
9017.5  -0.00119  
9020  0.00174  
9022.5  0.0031  
9025  -0.00079  
9027.5  0.00186  
9030  -0.00084  
9032.5  0.00151  
9035  -0.00356  
9037.5  -0.00112  
9040  0.00106  
9042.5  -0.002  
9045  0.00268  
9047.5  1e-05  
9050  3e-05  
9052.5  -0.0004  
9055  0.00017  
9057.5  0.00073  
9060  0.0028  
9062.5  0.00271  
9065  -0.00303  
9067.5  0.00069  
9070  0.00156  
9072.5  8e-05  
9075  -0.00222  
9077.5  0.0012  
9080  -0.00202  
9082.5  -0.00285  
9085  0.00094  
9087.5  0.00113  
9090  0.00067  
9092.5  0.00227  
9095  -0.00025  
9097.5  -0.00119  
9100  -0.00155  
9102.5  -0.00345  
9105  -0.00273  
9107.5  0.00188  
9110  -0.00025  
9112.5  0.00013  
9115  0.0001  
9117.5  0.00102  
9120  -0.00023  
9122.5  0.00127  
9125  0.00135  
9127.5  0.0021  
9130  0.00019  
9132.5  0.00192  
9135  -0.00075  
9137.5  0.00307  
9140  -0.00046  
9142.5  -0.0004  
9145  0.00305  
9147.5  -0.00036  
9150  0.00043  
9152.5  0.00182  
9155  0.00017  
9157.5  -0.00037  
9160  0.00104  
9162.5  0.00181  
9165  -0.00171  
9167.5  0.0004  
9170  0.00298  
9172.5  0.00234  
9175  0.00037  
9177.5  0.00036  
9180  -0.00086  
9182.5  -0.00116  
9185  -0.00136  
9187.5  -0.0028  
9190  0.00036  
9192.5  0.00257  
9195  -0.00028  
9197.5  0.00119  
9200  0.00289  
9202.5  -0.0001  
9205  0.00211  
9207.5  0.00059  
9210  0.00051  
9212.5  -0.00117  
9215  0.00052  
9217.5  0.00071  
9220  -0.00074  
9222.5  0.00213  
9225  0.00217  
9227.5  0.00045  
9230  0.00149  
9232.5  0.00022  
9235  0.00015  
9237.5  0.00109  
9240  0.0003  
9242.5  0.00104  
9245  -0.00084  
9247.5  0.00258  
9250  -0.00086  
9252.5  0.0027  
9255  0.002  
9257.5  0.00017  
9260  0.00297  
9262.5  -6e-05  
9265  0.0027  
9267.5  0.00346  
9270  0.0026  
9272.5  0.00621  
9275  0.00284  
9277.5  0.00227  
9280  0.00338  
9282.5  0.00284  
9285  0.00479  
9287.5  0.00062  
9290  0.00335  
9292.5  0.00119  
9295  -0.00128  
9297.5  0.00113  
9300  0.00412  
9302.5  0.00197  
9305  0.00413  
9307.5  0.00265  
9310  0.00144  
9312.5  0.00335  
9315  0.00709  
9317.5  0.00109  
9320  0.0072  
9322.5  0.00409  
9325  0.00147  
9327.5  0.0051  
9330  0.00605  
9332.5  0.00302  
9335  0.00371  
9337.5  0.00518  
9340  0.00498  
9342.5  0.00286  
9345  0.00411  
9347.5  0.0081  
9350  0.00662  
9352.5  0.00586  
9355  0.00789  
9357.5  0.00218  
9360  0.00783  
9362.5  0.00712  
9365  0.0027  
9367.5  0.00844  
9370  0.00622  
9372.5  0.00809  
9375  0.00603  
9377.5  0.00756  
9380  0.00889  
9382.5  0.00807  
9385  0.00943  
9387.5  0.00958  
9390  0.00772  
9392.5  0.00836  
9395  0.00942  
9397.5  0.01074  
9400  0.01069  
9402.5  0.01242  
9405  0.01132  
9407.5  0.01338  
9410  0.01278  
9412.5  0.01348  
9415  0.0158  
9417.5  0.01565  
9420  0.01506  
9422.5  0.01476  
9425  0.01982  
9427.5  0.01596  
9430  0.02282  
9432.5  0.02159  
9435  0.02313  
9437.5  0.0214  
9440  0.02409  
9442.5  0.02411  
9445  0.03002  
9447.5  0.02392  
9450  0.02898  
9452.5  0.02907  
9455  0.03109  
9457.5  0.0341  
9460  0.03392  
9462.5  0.03722  
9465  0.04113  
9467.5  0.04101  
9470  0.04568  
9472.5  0.04597  
9475  0.05123  
9477.5  0.05692  
9480  0.05689  
9482.5  0.06054  
9485  0.0605  
9487.5  0.0676  
9490  0.07231  
9492.5  0.07551  
9495  0.08043  
9497.5  0.08406  
9500  0.09152  
9502.5  0.1005  
9505  0.10316  
9507.5  0.1138  
9510  0.1197  
9512.5  0.12576  
9515  0.1347  
9517.5  0.14267  
9520  0.15157  
9522.5  0.16156  
9525  0.16926  
9527.5  0.18347  
9530  0.19389  
9532.5  0.20499  
9535  0.22191  
9537.5  0.23148  
9540  0.24831  
9542.5  0.26153  
9545  0.2799  
9547.5  0.29611  
9550  0.30812  
9552.5  0.33373  
9555  0.34672  
9557.5  0.37111  
9560  0.39976  
9562.5  0.41951  
9565  0.44331  
9567.5  0.467  
9570  0.50051  
9572.5  0.52637  
9575  0.5559  
9577.5  0.5913  
9580  0.62938  
9582.5  0.66403  
9585  0.70033  
9587.5  0.75213  
9590  0.79255  
9592.5  0.83434  
9595  0.89156  
9597.5  0.94492  
9600  1.01068  
9602.5  1.06643  
9605  1.14789  
9607.5  1.21038  
9610  1.2851  
9612.5  1.37818  
9615  1.46494  
9617.5  1.57189  
9620  1.6651  
9622.5  1.79495  
9625  1.90789  
9627.5  2.03469  
9630  2.2065  
9632.5  2.34329  
9635  2.5159  
9637.5  2.69114  
9640  2.90385  
9642.5  3.10118  
9645  3.31479  
9647.5  3.61582  
9650  3.85373  
9652.5  4.14886  
9655  4.45782  
9657.5  4.80546  
9660  5.15802  
9662.5  5.50906  
9665  6.01755  
9667.5  6.41756  
9670  6.8949  
9672.5  7.43307  
9675  7.98502  
9677.5  8.57992  
9680  9.16981  
9682.5  9.96212  
9685  10.60233  
9687.5  11.3533  
9690  12.24497  
9692.5  13.06127  
9695  14.01065  
9697.5  14.91055  
9700  16.07428  
9702.5  17.04536  
9705  18.11688  
9707.5  19.47482  
9710  20.61602  
9712.5  21.9494  
9715  23.20619  
9717.5  24.71644  
9720  26.01466  
9722.5  27.39938  
9725  29.17596  
9727.5  30.55136  
9730  32.19792  
9732.5  33.74747  
9735  35.45351  
9737.5  36.99706  
9740  38.52801  
9742.5  40.50006  
9745  41.91714  
9747.5  43.58467  
9750  45.25046  
9752.5  46.89574  
9755  48.45843  
9757.5  49.90448  
9760  51.72974  
9762.5  53.00991  
9765  54.47506  
9767.5  55.91625  
9770  57.27359  
9772.5  58.60841  
9775  59.73951  
9777.5  61.13936  
9780  62.11653  
9782.5  63.15919  
9785  64.24886  
9787.5  65.13616  
9790  66.04498  
9792.5  66.79955  
9795  67.64581  
9797.5  68.24769  
9800  68.8614  
9802.5  69.50243  
9805  69.97728  
9807.5  70.46266  
9810  70.86295  
9812.5  71.25987  
9815  71.5527  
9817.5  71.82354  
9820  72.12502  
9822.5  72.30578  
9825  72.49166  
9827.5  72.64381  
9830  72.77891  
9832.5  72.88313  
9835  72.96365  
9837.5  73.05734  
9840  73.10539  
9842.5  73.15836  
9845  73.20171  
9847.5  73.23549  
9850  73.27039  
9852.5  73.29843  
9855  73.33212  
9857.5  73.35256  
9860  73.3907  
9862.5  73.42216  
9865  73.46103  
9867.5  73.50209  
9870  73.53781  
9872.5  73.59088  
9875  73.64251  
9877.5  73.6907  
9880  73.75302  
9882.5  73.81547  
9885  73.88429  
9887.5  73.94443  
9890  74.0286  
9892.5  74.08115  
9895  74.15661  
9897.5  74.23931  
9900  74.3056  
9902.5  74.37355  
9905  74.44424  
9907.5  74.53439  
9910  74.59426  
9912.5  74.6519  
9915  74.73134  
9917.5  74.79403  
9920  74.8644  
9922.5  74.92743  
9925  74.98729  
9927.5  75.04689  
9930  75.09331  
9932.5  75.15774  
9935  75.20837  
9937.5  75.25339  
9940  75.30617  
9942.5  75.34821  
9945  75.3853  
9947.5  75.41832  
9950  75.46777  
9952.5  75.50181  
9955  75.53293  
9957.5  75.5689  
9960  75.58197  
9962.5  75.60222  
9965  75.62651  
9967.5  75.63584  
9970  75.65568  
9972.5  75.66541  
9975  75.67039  
9977.5  75.66639  
9980  75.66328  
9982.5  75.66368  
9985  75.65694  
9987.5  75.64762  
9990  75.63778  
9992.5  75.6023  
9995  75.57905  
9997.5  75.55675  
10000  75.51663  
10002.5  75.48826  
10005  75.45702  
10007.5  75.41397  
10010  75.35234  
10012.5  75.31892  
10015  75.26857  
10017.5  75.21307  
10020  75.16563  
10022.5  75.11758  
10025  75.06393  
10027.5  75.00613  
10030  74.95396  
10032.5  74.90536  
10035  74.85617  
10037.5  74.80492  
10040  74.7589  
10042.5  74.72485  
10045  74.67907  
10047.5  74.65237  
10050  74.61845  
10052.5  74.59583  
10055  74.5677  
10057.5  74.55028  
10060  74.53473  
10062.5  74.527  
10065  74.53337  
10067.5  74.54186  
10070  74.54549  
10072.5  74.56135  
10075  74.59476  
10077.5  74.62108  
10080  74.65807  
10082.5  74.69723  
10085  74.74367  
10087.5  74.78686  
10090  74.85439  
10092.5  74.92342  
10095  74.99291  
10097.5  75.07041  
10100  75.13904  
10102.5  75.21083  
10105  75.31268  
10107.5  75.38688  
10110  75.47636  
10112.5  75.57595  
10115  75.66189  
10117.5  75.75573  
10120  75.8307  
10122.5  75.94348  
10125  76.01957  
10127.5  76.1113  
10130  76.19748  
10132.5  76.2721  
10135  76.36248  
10137.5  76.41544  
10140  76.50195  
10142.5  76.56502  
10145  76.60989  
10147.5  76.67036  
10150  76.7108  
10152.5  76.74989  
10155  76.78182  
10157.5  76.81916  
10160  76.83209  
10162.5  76.83984  
10165  76.84793  
10167.5  76.84025  
10170  76.82478  
10172.5  76.81927  
10175  76.80248  
10177.5  76.77831  
10180  76.73344  
10182.5  76.70259  
10185  76.66193  
10187.5  76.61878  
10190  76.5678  
10192.5  76.50873  
10195  76.45535  
10197.5  76.39618  
10200  76.341  
10202.5  76.29072  
10205  76.22578  
10207.5  76.17463  
10210  76.1168  
10212.5  76.07041  
10215  76.02831  
10217.5  75.98265  
10220  75.9473  
10222.5  75.90828  
10225  75.89378  
10227.5  75.86762  
10230  75.85715  
10232.5  75.85327  
10235  75.8539  
10237.5  75.85998  
10240  75.89472  
10242.5  75.92947  
10245  75.9724  
10247.5  76.01959  
10250  76.07973  
10252.5  76.15273  
10255  76.2219  
10257.5  76.30045  
10260  76.40974  
10262.5  76.49768  
10265  76.60619  
10267.5  76.7207  
10270  76.83931  
10272.5  76.96175  
10275  77.06566  
10277.5  77.22081  
10280  77.33712  
10282.5  77.46156  
10285  77.58248  
10287.5  77.71275  
10290  77.82518  
10292.5  77.93406  
10295  78.07627  
10297.5  78.17232  
10300  78.27158  
10302.5  78.36772  
10305  78.45537  
10307.5  78.5305  
10310  78.59591  
10312.5  78.67135  
10315  78.71474  
10317.5  78.7542  
10320  78.78033  
10322.5  78.80083  
10325  78.81999  
10327.5  78.8178  
10330  78.80331  
10332.5  78.77695  
10335  78.75048  
10337.5  78.70582  
10340  78.65318  
10342.5  78.59135  
10345  78.52642  
10347.5  78.4267  
10350  78.35865  
10352.5  78.27196  
10355  78.15096  
10357.5  78.05529  
10360  77.93766  
10362.5  77.83035  
10365  77.67898  
10367.5  77.56501  
10370  77.4521  
10372.5  77.29783  
10375  77.18105  
10377.5  77.0484  
10380  76.91834  
10382.5  76.78792  
10385  76.67524  
10387.5  76.57247  
10390  76.4266  
10392.5  76.33984  
10395  76.23813  
10397.5  76.14734  
10400  76.06188  
10402.5  75.99442  
10405  75.94489  
10407.5  75.88914  
10410  75.85121  
10412.5  75.83279  
10415  75.82568  
10417.5  75.82626  
10420  75.84276  
10422.5  75.87154  
10425  75.92548  
10427.5  75.96886  
10430  76.03716  
10432.5  76.12564  
10435  76.21278  
10437.5  76.33066  
10440  76.43421  
10442.5  76.57211  
10445  76.69949  
10447.5  76.8269  
10450  76.99836  
10452.5  77.14905  
10455  77.31229  
10457.5  77.47498  
10460  77.65634  
10462.5  77.82383  
10465  77.98003  
10467.5  78.18417  
10470  78.33818  
10472.5  78.50597  
10475  78.67776  
10477.5  78.84476  
10480  79.014  
10482.5  79.15205  
10485  79.32879  
10487.5  79.45744  
10490  79.59192  
10492.5  79.72427  
10495  79.85226  
10497.5  79.97398  
10500  80.0683  
10502.5  80.18616  
10505  80.26386  
10507.5  80.34885  
10510  80.42326  
10512.5  80.49619  
10515  80.55303  
10517.5  80.59437  
10520  80.64697  
10522.5  80.67059  
10525  80.7037  
10527.5  80.71189  
10530  80.72398  
10532.5  80.72269  
10535  80.71716  
10537.5  80.70277  
10540  80.69514  
10542.5  80.66862  
10545  80.63354  
10547.5  80.60004  
10550  80.56138  
10552.5  80.51881  
10555  80.45476  
10557.5  80.41184  
10560  80.35792  
10562.5  80.29002  
10565  80.22723  
10567.5  80.15298  
10570  80.09093  
10572.5  80.01057  
10575  79.93956  
10577.5  79.86555  
10580  79.76799  
10582.5  79.69643  
10585  79.62366  
10587.5  79.54002  
10590  79.45526  
10592.5  79.37991  
10595  79.29381  
10597.5  79.19215  
10600  79.12197  
10602.5  79.0333  
10605  78.94023  
10607.5  78.84701  
10610  78.75889  
10612.5  78.67004  
10615  78.56275  
10617.5  78.46992  
10620  78.37367  
10622.5  78.24277  
10625  78.13487  
10627.5  77.99973  
10630  77.86652  
10632.5  77.70997  
10635  77.55281  
10637.5  77.36452  
10640  77.12597  
10642.5  76.91255  
10645  76.63025  
10647.5  76.35344  
10650  75.9698  
10652.5  75.61898  
10655  75.21971  
10657.5  74.64636  
10660  74.16442  
10662.5  73.53562  
10665  72.87434  
10667.5  72.09542  
10670  71.3185  
10672.5  70.51465  
10675  69.34576  
10677.5  68.43867  
10680  67.25491  
10682.5  66.03954  
10685  64.72765  
10687.5  63.36357  
10690  62.05146  
10692.5  60.22518  
10695  58.86443  
10697.5  57.21355  
10700  55.47311  
10702.5  53.7395  
10705  51.91396  
10707.5  50.26068  
10710  48.10699  
10712.5  46.5224  
10715  44.73023  
10717.5  42.75237  
10720  41.02475  
10722.5  39.1225  
10725  37.47433  
10727.5  35.49769  
10730  33.97039  
10732.5  32.38124  
10735  30.55227  
10737.5  29.11321  
10740  27.51201  
10742.5  26.11045  
10745  24.58757  
10747.5  23.33558  
10750  22.12022  
10752.5  20.63796  
10755  19.58829  
10757.5  18.39656  
10760  17.34671  
10762.5  16.25877  
10765  15.33173  
10767.5  14.46774  
10770  13.39813  
10772.5  12.66401  
10775  11.86133  
10777.5  11.11244  
10780  10.40932  
10782.5  9.7328  
10785  9.15496  
10787.5  8.44013  
10790  7.95117  
10792.5  7.43084  
10795  6.91405  
10797.5  6.4687  
10800  6.02222  
10802.5  5.64256  
10805  5.20351  
10807.5  4.88432  
10810  4.56633  
10812.5  4.22851  
10815  3.95942  
10817.5  3.67901  
10820  3.44655  
10822.5  3.18367  
10825  2.98567  
10827.5  2.79277  
10830  2.584  
10832.5  2.43108  
10835  2.26635  
10837.5  2.12122  
10840  1.97782  
10842.5  1.85304  
10845  1.74449  
10847.5  1.61756  
10850  1.52985  
10852.5  1.43241  
10855  1.34438  
10857.5  1.26585  
10860  1.19188  
10862.5  1.12382  
10865  1.04743  
10867.5  0.99501  
10870  0.94223  
10872.5  0.8867  
10875  0.83947  
10877.5  0.79134  
10880  0.75331  
10882.5  0.70365  
10885  0.67208  
10887.5  0.64227  
10890  0.60361  
10892.5  0.57375  
10895  0.54525  
10897.5  0.52053  
10900  0.48707  
10902.5  0.46844  
10905  0.44148  
10907.5  0.41913  
10910  0.40151  
10912.5  0.37834  
10915  0.36362  
10917.5  0.34208  
10920  0.32807  
10922.5  0.31177  
10925  0.29611  
10927.5  0.28217  
10930  0.2675  
10932.5  0.2563  
10935  0.24469  
10937.5  0.23055  
10940  0.222  
10942.5  0.20594  
10945  0.20061  
10947.5  0.18909  
10950  0.18015  
10952.5  0.17316  
10955  0.16171  
10957.5  0.15746  
10960  0.14397  
10962.5  0.14006  
10965  0.13626  
10967.5  0.12826  
10970  0.12358  
10972.5  0.11699  
10975  0.11211  
10977.5  0.10568  
10980  0.10114  
10982.5  0.10078  
10985  0.09331  
10987.5  0.09001  
10990  0.08722  
10992.5  0.08446  
10995  0.08032  
10997.5  0.07689  
11000  0.07295  
11002.5  0.07226  
11005  0.07084  
11007.5  0.06634  
11010  0.06587  
11012.5  0.0615  
11015  0.05613  
11017.5  0.05699  
11020  0.05568  
11022.5  0.05632  
11025  0.05349  
11027.5  0.05349  
11030  0.05073  
11032.5  0.05062  
11035  0.04881  
11037.5  0.04687  
11040  0.0458  
11042.5  0.04333  
11045  0.04349  
11047.5  0.04026  
11050  0.04507  
11052.5  0.04296  
11055  0.04046  
11057.5  0.04076  
11060  0.03927  
11062.5  0.03374  
11065  0.03544  
11067.5  0.03427  
11070  0.03514  
11072.5  0.03545  
11075  0.03047  
11077.5  0.03093  
11080  0.03042  
11082.5  0.03402  
11085  0.03077  
11087.5  0.02617  
11090  0.02581  
11092.5  0.02649  
11095  0.02192  
11097.5  0.02622  
11100  0.02124  
11102.5  0.02057  
11105  0.02136  
11107.5  0.02104  
11110  0.01951  
11112.5  0.01756  
11115  0.01732  
11117.5  0.0161  
11120  0.01698  
11122.5  0.01326  
11125  0.01438  
11127.5  0.01476  
11130  0.01432  
11132.5  0.01292  
11135  0.01351  
11137.5  0.0138  
11140  0.01293  
11142.5  0.00985  
11145  0.01038  
11147.5  0.0126  
11150  0.0085  
11152.5  0.00786  
11155  0.0077  
11157.5  0.00492  
11160  0.00713  
11162.5  0.00753  
11165  0.00611  
11167.5  0.00681  
11170  0.00888  
11172.5  0.00412  
11175  0.00562  
11177.5  0.00573  
11180  0.00894  
11182.5  0.00639  
11185  0.0041  
11187.5  0.00255  
11190  0.00561  
11192.5  0.00199  
11195  0.00185  
11197.5  0.00318  
11200  0.00295  
11202.5  0.00562  
11205  0.00501  
11207.5  0.00353  
11210  0.00265  
11212.5  -0.00089  
11215  0.00186  
11217.5  0.00652  
11220  0.00702  
11222.5  0.00801  
11225  0.00557  
11227.5  0.00227  
11230  0.00174  
11232.5  0.00564  
11235  0.00193  
11237.5  0.00504  
11240  0.00219  
11242.5  0.00571  
11245  0.00454  
11247.5  0.0024  
11250  0.00035  
11252.5  0.00301  
11255  0.00361  
11257.5  0.00162  
11260  0.00091  
11262.5  0.00134  
11265  0.00081  
11267.5  0.00496  
11270  0.00279  
11272.5  0.00072  
11275  0.00751  
11277.5  0.00248  
11280  0.0046  
11282.5  0.00045  
11285  0.00533  
11287.5  0.00257  
11290  0.00276  
11292.5  0.00504  
11295  0.00394  
11297.5  0.0001  
11300  0.00342  
11302.5  0.00099  
11305  0.00377  
11307.5  0.00077  
11310  0.00173  
11312.5  -0.00112  
11315  0.00507  
11317.5  0.00158  
11320  0.0021  
11322.5  -0.00082  
11325  0.00348  
11327.5  -0.00038  
11330  0.00189  
11332.5  0.0034  
11335  0.00414  
11337.5  0.00183  
11340  0.00314  
11342.5  0.00173  
11345  0.0012  
11347.5  0.00352  
11350  0.00385  
11352.5  0.00038  
11355  -0.00114  
11357.5  0.00061  
11360  -0.00014  
11362.5  0.00075  
11365  0.00053  
11367.5  0.00109  
11370  0.00133  
11372.5  0.00187  
11375  -0.00209  
11377.5  0.00157  
11380  0.0019  
11382.5  0.00049  
11385  0.00179  
11387.5  -0.00265  
11390  0.0022  
11392.5  -0.00361  
11395  7e-05  
11397.5  0.00169  
11400  -0.00179  
11402.5  -0.00187  
11405  1e-05  
11407.5  0.00091  
11410  -0.00129  
11412.5  -0.00366  
11415  0.00072  
11417.5  -0.00096  
11420  0.00155  
11422.5  0.0011  
11425  0.00109  
11427.5  -0.0025  
11430  -0.00362  
11432.5  -0.0025  
11435  -0.00081  
11437.5  0.0017  
11440  -0.00261  
11442.5  -0.00177  
11445  0.00134  
11447.5  0.00027  
11450  0.00111  
11452.5  -0.002  
11455  -0.00064  
11457.5  0.00344  
11460  0.00044  
11462.5  -0.00082  
11465  -0.00146  
11467.5  0.00052  
11470  -0.00209  
11472.5  0.00097  
11475  0.00081  
11477.5  -0.00036  
11480  -0.00065  
11482.5  -0.00092  
11485  -0.00141  
11487.5  0.00057  
11490  -0.00464  
11492.5  -0.0018  
11495  -0.00135  
11497.5  0.00028  
11500  -0.00194  
